
27.01.2016	12:21:28
V	I	G
[V]	[A]	[W/m²]
0,4271	0,0761	28,1512
0,8831	0,0759	29,7822
1,2780	0,0758	28,0803
1,7019	0,0751	29,6758
2,1386	0,0752	28,1158
2,6107	0,0754	29,6404
3,0345	0,0746	28,0803
3,4809	0,0752	29,7467
3,8759	0,0752	28,1158
4,3190	0,0743	29,7467
4,7429	0,0745	28,0803
5,1346	0,0738	29,8176
5,5810	0,0736	28,1867
5,9824	0,0740	29,7113
6,3838	0,0740	28,0803
6,7819	0,0738	29,7113
7,1865	0,0738	28,1512
7,6329	0,0740	29,7113
7,9315	0,0732	28,1867
8,3811	0,0734	29,7467
8,8628	0,0730	28,1158
9,2802	0,0730	29,6758
9,6559	0,0727	28,1158
10,0156	0,0724	29,7113
10,4715	0,0722	28,1158
10,8922	0,0720	29,7467
11,2872	0,0721	28,0803
11,6500	0,0718	29,7822
12,0611	0,0721	28,1512
12,4946	0,0722	29,7822
12,8638	0,0716	28,0449
13,2363	0,0714	29,7113
13,6506	0,0707	28,1158
14,0616	0,0709	29,7467
14,3988	0,0708	28,1158
14,7873	0,0711	29,8885
15,2240	0,0707	28,1512
15,6415	0,0705	29,7822
16,0236	0,0705	28,0803
16,4507	0,0702	29,7822
16,8457	0,0699	28,1512
17,1796	0,0699	29,7467
17,5939	0,0697	28,1512
17,9342	0,0698	29,7113
18,3421	0,0693	28,1512
18,7178	0,0688	29,7113
19,0774	0,0689	28,0449
19,5173	0,0689	29,7822
19,8641	0,0687	28,0449
20,2109	0,0686	29,6758
20,6123	0,0683	28,1158
21,0201	0,0678	29,7467
21,3734	0,0680	28,0449
21,6913	0,0681	29,6758
22,1248	0,0678	28,1158
22,5454	0,0676	29,8885
22,9147	0,0683	28,0803
23,2326	0,0678	29,8885
23,6469	0,0675	28,1158
24,0097	0,0671	29,7467
24,3822	0,0671	28,0803
24,7290	0,0669	29,7113
25,0405	0,0665	28,0449
25,4772	0,0670	29,7113
25,8112	0,0662	28,0803
26,1580	0,0662	29,7113
26,5176	0,0660	28,1158
26,9608	0,0661	29,8176
27,3011	0,0657	28,0449
27,6223	0,0656	29,6758
28,0333	0,0660	28,1512
28,3929	0,0654	29,7467
28,7558	0,0651	28,1512
29,1154	0,0649	29,7113
29,5072	0,0648	28,0803
29,8187	0,0646	29,6758
30,1591	0,0653	28,0449
30,5508	0,0646	29,8176
30,8880	0,0646	28,0449
31,2220	0,0643	29,6758
31,5559	0,0635	28,1512
31,8449	0,0642	29,8176
32,2913	0,0640	28,0803
32,6477	0,0642	29,7113
32,9784	0,0633	28,0803
33,3349	0,0635	29,8176
33,6977	0,0634	28,0449
34,0156	0,0629	29,7467
34,3560	0,0628	28,0449
34,7446	0,0633	29,7822
35,0721	0,0630	28,0449
35,3708	0,0630	29,7822
35,6854	0,0624	28,0803
36,0804	0,0626	29,7467
36,4304	0,0622	28,1158
36,7387	0,0621	29,7822
37,0116	0,0619	28,0803
37,3167	0,0612	29,7113
37,7309	0,0616	28,1512
37,9718	0,0617	29,7467
38,4085	0,0612	28,0094
38,6269	0,0607	29,7113
39,0828	0,0606	28,0449
39,3750	0,0611	29,7113
39,6641	0,0605	28,0094
39,9787	0,0612	29,7467
40,3191	0,0606	28,0449
40,6723	0,0599	29,7467
41,0063	0,0602	27,9740
41,2921	0,0595	29,8176
41,6710	0,0599	28,0803
41,8797	0,0597	29,6404
42,2747	0,0599	28,0449
42,4899	0,0591	29,6758
42,9587	0,0594	28,0803
43,2734	0,0586	29,7467
43,5431	0,0584	27,9031
43,8706	0,0588	29,7113
44,1725	0,0588	28,0449
44,4679	0,0583	29,6049
44,8404	0,0584	28,1158
45,1230	0,0584	29,5340
45,4281	0,0574	28,0449
45,7716	0,0578	29,6049
46,1024	0,0574	28,0803
46,3497	0,0574	29,6049
46,7189	0,0579	28,0094
46,9405	0,0573	29,6404
47,2841	0,0567	27,9740
47,5859	0,0562	29,6758
47,9327	0,0564	27,9740
48,2185	0,0564	29,7113
48,5589	0,0564	28,0803
48,8383	0,0562	29,6758
49,1305	0,0561	28,0803
49,4805	0,0551	29,7467
49,8209	0,0548	28,0094
50,0425	0,0553	29,6049
50,3668	0,0550	28,0449
50,6558	0,0551	29,7467
50,9865	0,0548	27,9740
51,2370	0,0543	29,7467
51,5549	0,0541	28,0449
51,8150	0,0540	29,6404
52,1169	0,0537	28,0094
52,4540	0,0538	29,7467
52,7366	0,0543	27,9740
52,9775	0,0537	29,6758
53,3499	0,0537	28,0803
53,6197	0,0531	29,7113
53,8348	0,0523	27,9740
54,1624	0,0521	29,6758
54,3968	0,0520	27,9740
54,7307	0,0525	29,7467
55,0743	0,0521	28,0803
55,2734	0,0516	29,5340
55,5945	0,0509	28,0094
55,8996	0,0514	29,7113
56,1469	0,0512	28,0094
56,4230	0,0509	29,6404
56,6992	0,0512	28,0094
56,9817	0,0509	29,5340
57,2483	0,0503	28,0803
57,4987	0,0503	29,6049
57,8199	0,0496	28,0803
58,1056	0,0494	29,6758
58,3208	0,0494	27,9740
58,6034	0,0496	29,6404
58,8860	0,0488	28,0449
59,1782	0,0487	29,7113
59,3997	0,0480	27,9031
59,7048	0,0475	29,7113
59,8654	0,0478	28,0094
60,1576	0,0478	29,7113
60,4080	0,0476	28,0449
60,6617	0,0476	29,7467
60,9154	0,0465	27,8676
61,1819	0,0461	29,6049
61,4774	0,0458	28,0094
61,7471	0,0456	29,6758
61,9237	0,0458	27,9740
62,1774	0,0458	29,7467
62,4182	0,0449	27,9740
62,6815	0,0445	29,7467
62,9481	0,0445	28,0449
63,1182	0,0433	29,7113
63,3848	0,0438	28,0094
63,6352	0,0437	29,7113
63,8375	0,0431	27,8676
64,1009	0,0432	29,6758
64,2935	0,0415	27,9031
64,5279	0,0418	29,7467
64,7367	0,0406	27,9031
65,0192	0,0406	29,7822
65,1702	0,0406	27,9031
65,3982	0,0404	29,7467
65,5972	0,0395	27,9031
65,8702	0,0388	29,7822
66,0308	0,0393	27,9031
66,2844	0,0383	29,7113
66,4578	0,0377	27,8676
66,7115	0,0378	29,7467
66,8560	0,0368	27,9740
67,0391	0,0373	29,7467
67,3056	0,0357	28,0094
67,4340	0,0354	29,6758
67,6877	0,0345	28,0449
67,8707	0,0347	29,6758
68,0409	0,0341	27,9740
68,2336	0,0341	29,7822
68,3524	0,0332	27,8676
68,5419	0,0321	29,7113
68,7666	0,0318	27,9740
68,8887	0,0312	29,6404
69,0364	0,0308	28,0449
69,2483	0,0307	29,7467
69,4121	0,0308	28,0449
69,4924	0,0293	29,7113
69,6658	0,0285	27,9031
69,8809	0,0276	29,7113
70,0543	0,0276	27,8676
70,1250	0,0267	29,7467
70,3208	0,0269	27,9740
70,4300	0,0263	29,7113
70,5007	0,0253	28,0449
70,7190	0,0239	29,7113
70,8443	0,0237	27,9031
70,9791	0,0222	29,6049
71,1076	0,0228	27,9740
71,1911	0,0222	29,6404
71,3356	0,0216	28,0449
71,4512	0,0216	29,7467
71,5636	0,0204	28,0094
71,6984	0,0200	29,7113
71,8076	0,0189	27,8322
71,8397	0,0189	29,7113
71,9874	0,0183	28,0449
72,0516	0,0183	29,6049
72,1351	0,0177	27,9740
72,2668	0,0162	29,7113
72,3471	0,0163	27,8676
72,4274	0,0155	29,6049
72,5108	0,0152	28,0449
72,5911	0,0148	29,6758
72,6264	0,0144	27,9031
72,7003	0,0137	29,6758
72,8191	0,0128	27,9740
72,9187	0,0126	29,6758
72,9797	0,0120	27,9740
72,9989	0,0121	29,6404
73,0632	0,0117	27,9031
73,1627	0,0115	29,7113
73,2077	0,0107	27,9031
73,1402	0,0097	29,6049
73,2558	0,0092	27,9031
73,3457	0,0085	29,6049
73,4421	0,0091	27,9031
73,4710	0,0085	29,6404

27.01.2016	12:26:28
V	I	G
[V]	[A]	[W/m²]
0,4207	0,0788	30,5622
0,8510	0,0783	29,0731
1,3615	0,0778	30,5976
1,8464	0,0781	29,0731
2,2414	0,0781	30,5267
2,6363	0,0779	29,0731
3,1212	0,0783	30,5622
3,5612	0,0775	29,1085
4,0171	0,0775	30,4913
4,3672	0,0772	29,1440
4,7974	0,0773	30,5267
5,2342	0,0776	29,0022
5,6452	0,0776	30,5976
6,1493	0,0770	29,1794
6,5893	0,0759	30,5976
7,0099	0,0762	29,0022
7,4755	0,0758	30,4913
7,8352	0,0768	29,1440
8,3458	0,0769	30,5622
8,7086	0,0762	29,1794
9,1485	0,0762	30,5622
9,5821	0,0752	29,0731
10,0445	0,0751	30,5976
10,4137	0,0743	29,0731
10,8729	0,0746	30,5622
11,1523	0,0748	29,0731
11,6725	0,0748	30,7040
12,1028	0,0749	29,0022
12,4978	0,0745	30,5976
12,9184	0,0738	29,0731
13,3038	0,0736	30,5267
13,7887	0,0741	29,1440
14,1322	0,0740	30,6686
14,5336	0,0745	28,9667
14,9864	0,0741	30,5976
15,3589	0,0731	29,0022
15,8053	0,0725	30,5976
16,1585	0,0722	29,0022
16,4700	0,0736	30,5267
16,9259	0,0735	28,9667
17,2663	0,0732	30,5267
17,7062	0,0724	29,0731
18,2393	0,0720	30,5976
18,5893	0,0720	29,0022
18,8912	0,0713	30,4913
19,4178	0,0716	29,1085
19,7678	0,0714	30,5622
20,1949	0,0718	29,0731
20,5866	0,0720	30,5267
20,9623	0,0705	29,1085
21,1936	0,0708	30,5267
21,7555	0,0704	29,0022
22,1376	0,0703	30,5976
22,4652	0,0707	29,0731
22,7991	0,0711	30,5267
23,3418	0,0703	29,1085
23,6629	0,0696	30,4913
24,0611	0,0693	29,0022
24,3597	0,0696	30,4204
24,8607	0,0698	29,1794
25,2524	0,0699	30,4558
25,6025	0,0696	29,1085
26,0071	0,0697	30,5622
26,3506	0,0687	29,0731
26,7328	0,0683	30,5267
27,0988	0,0678	29,0731
27,4456	0,0689	30,4558
27,7925	0,0686	28,9667
28,1168	0,0689	30,5267
28,5246	0,0683	29,1085
28,9613	0,0676	30,4913
29,3370	0,0671	28,9667
29,7480	0,0672	30,5267
30,1205	0,0677	28,9667
30,4609	0,0672	30,5976
30,8334	0,0672	28,9667
31,1609	0,0667	30,4558
31,5752	0,0666	28,8958
31,9573	0,0661	30,4204
32,3330	0,0661	29,0731
32,6766	0,0665	30,5622
32,9849	0,0661	28,9667
33,3831	0,0665	30,4558
33,7491	0,0651	29,0022
33,9546	0,0649	30,4913
34,4620	0,0646	28,9313
34,8505	0,0649	30,5267
35,1781	0,0656	29,0022
35,5120	0,0657	30,4204
35,9070	0,0651	29,0731
36,2667	0,0642	30,5267
36,5974	0,0639	29,0022
36,9185	0,0643	30,4204
37,2717	0,0643	29,0022
37,6442	0,0644	30,4558
37,8915	0,0639	28,9667
38,2158	0,0640	30,3495
38,5819	0,0632	28,9313
39,0443	0,0632	30,4558
39,4104	0,0624	29,0731
39,7154	0,0630	30,4204
40,0687	0,0630	29,0022
40,3577	0,0628	30,4558
40,7173	0,0626	28,8603
41,0994	0,0621	30,5976
41,4366	0,0616	28,9313
41,7417	0,0616	30,4558
42,1142	0,0617	28,9313
42,4545	0,0621	30,4913
42,7564	0,0619	29,0022
43,1128	0,0619	30,5622
43,4468	0,0611	29,0022
43,8000	0,0610	30,4913
44,1275	0,0604	28,9313
44,3106	0,0605	30,4558
44,7794	0,0611	29,0022
45,0556	0,0605	30,5267
45,4473	0,0610	28,9667
45,7492	0,0594	30,5267
46,1088	0,0594	28,9313
46,3818	0,0589	30,4913
46,6130	0,0597	28,9667
47,0047	0,0596	30,5267
47,2456	0,0601	28,9667
47,5827	0,0592	30,4558
47,8621	0,0588	28,9313
48,3213	0,0586	30,4558
48,6585	0,0580	28,9313
48,9828	0,0586	30,4204
49,2718	0,0580	28,9667
49,5993	0,0584	30,4913
49,8851	0,0580	29,0022
50,1709	0,0567	30,3495
50,4856	0,0570	28,9313
50,8324	0,0568	30,4204
51,1503	0,0574	28,9667
51,4104	0,0568	30,3495
51,6063	0,0569	28,8603
52,0141	0,0565	30,4913
52,3320	0,0558	28,8958
52,7013	0,0559	30,4558
52,9197	0,0552	28,8958
53,1733	0,0558	30,4558
53,5779	0,0559	28,8958
53,8380	0,0558	30,4204
54,1848	0,0550	28,8958
54,4931	0,0548	30,4204
54,6922	0,0542	28,9313
55,0486	0,0538	30,4913
55,3312	0,0541	28,9313
55,5881	0,0540	30,3495
55,5913	0,0541	28,8603
56,1051	0,0540	30,4558
56,4198	0,0534	28,9313
56,7794	0,0527	30,5267
57,0652	0,0521	28,9313
57,3446	0,0529	30,3495
57,6240	0,0529	28,9313
57,9226	0,0530	30,5267
58,1891	0,0513	28,8603
58,4717	0,0509	30,4558
58,7928	0,0510	28,9313
59,0561	0,0504	30,4913
59,2841	0,0513	28,8249
59,4608	0,0503	30,4204
59,7433	0,0500	28,8958
60,1383	0,0500	30,4558
60,4177	0,0493	28,8603
60,6521	0,0491	30,3495
60,9282	0,0486	28,7894
61,2044	0,0493	30,4558
61,4549	0,0488	28,8249
61,6379	0,0483	30,4913
61,8787	0,0480	28,8603
62,2416	0,0470	30,4558
62,4696	0,0464	28,8603
62,7040	0,0465	30,3495
62,9705	0,0469	28,8249
63,1953	0,0461	30,3495
63,4040	0,0459	28,8603
63,5807	0,0455	30,4204
63,8279	0,0450	28,8958
64,1715	0,0443	30,4204
64,4412	0,0440	28,7894
64,7046	0,0442	30,4913
64,9133	0,0429	28,8958
65,1316	0,0431	30,3495
65,3500	0,0420	28,7894
65,5972	0,0418	30,4558
65,7899	0,0412	28,7894
66,0340	0,0412	30,3495
66,2748	0,0410	28,8958
66,4707	0,0404	30,4913
66,6666	0,0396	28,7894
66,8592	0,0394	30,3495
67,1001	0,0386	28,7894
67,3056	0,0377	30,4558
67,4340	0,0373	28,8958
67,7005	0,0373	30,3495
67,8836	0,0372	28,7894
68,1084	0,0367	30,4558
68,2978	0,0354	28,8603
68,4552	0,0341	30,3495
68,6446	0,0340	28,8603
68,8726	0,0339	30,3495
69,0043	0,0339	28,8603
69,1488	0,0331	30,4558
69,2644	0,0323	28,7185
69,4635	0,0313	30,3140
69,6369	0,0309	28,8958
69,9002	0,0294	30,4913
70,0415	0,0294	28,8603
70,0800	0,0292	30,3140
70,2952	0,0283	28,8249
70,5199	0,0283	30,4204
70,6805	0,0269	28,7894
70,8121	0,0259	30,4558
70,9021	0,0250	28,7894
71,0433	0,0248	30,3140
71,1718	0,0247	28,7185
71,3291	0,0243	30,4204
71,4480	0,0236	28,7894
71,5700	0,0221	30,3140
71,7337	0,0221	28,8249
71,8429	0,0207	30,4558
71,8879	0,0207	28,7894
71,8622	0,0202	30,3140
72,0741	0,0199	28,8249
72,1961	0,0190	30,4558
72,1351	0,0173	28,7185
72,4530	0,0177	30,4204
72,5590	0,0164	28,7894
72,6168	0,0164	30,4204
72,6586	0,0162	28,8249
72,7388	0,0161	30,2785
72,7613	0,0156	28,8249
72,7902	0,0136	30,3140
72,9154	0,0136	28,7894
73,1049	0,0129	30,3495
73,1402	0,0124	28,8249
73,1595	0,0124	30,2431
73,0888	0,0117	28,8958
73,3393	0,0108	30,3140
73,4292	0,0107	28,8249
73,4453	0,0102	30,2076
73,5448	0,0093	28,8249
73,5641	0,0098	30,2785
73,5577	0,0096	28,7185
73,6765	0,0092	30,3495
73,7086	0,0083	28,8603

27.01.2016	12:31:28
V	I	G
[V]	[A]	[W/m²]
0,2184	0,0418	15,8838
0,5330	0,0420	15,9902
0,7867	0,0412	15,8129
0,9987	0,0418	16,0611
1,2267	0,0413	15,8129
1,4964	0,0417	16,0256
1,7148	0,0413	15,8129
1,9652	0,0415	16,0611
2,1611	0,0415	15,7775
2,4437	0,0413	16,0256
2,6781	0,0412	15,8129
2,8997	0,0417	16,0966
3,1116	0,0412	15,7420
3,4327	0,0412	16,1675
3,6093	0,0404	15,8129
3,8470	0,0408	16,0966
4,0493	0,0410	15,7775
4,3607	0,0410	16,0966
4,5695	0,0410	15,8838
4,8392	0,0408	15,9547
5,0319	0,0399	15,8838
5,2470	0,0402	16,0256
5,5264	0,0400	15,7775
5,6356	0,0406	16,0256
5,8443	0,0406	15,7775
6,1718	0,0402	16,0611
6,4287	0,0404	15,8129
6,6920	0,0396	16,0611
6,8751	0,0393	15,8838
7,1544	0,0390	16,0611
7,3310	0,0399	15,8129
7,5976	0,0396	16,1675
7,7035	0,0393	15,8129
8,0022	0,0394	15,9902
8,2751	0,0396	15,8129
8,4549	0,0390	15,9547
8,6348	0,0393	15,9193
8,8756	0,0393	16,0256
9,1421	0,0390	15,8129
9,3348	0,0391	16,0966
9,6013	0,0390	15,8129
9,7908	0,0384	16,0611
10,0669	0,0383	15,7775
10,2724	0,0386	16,0256
10,5037	0,0383	15,9193
10,6963	0,0391	15,9902
10,8537	0,0388	15,9193
11,0817	0,0386	16,0611
11,2165	0,0380	15,7420
11,5216	0,0388	16,1675
11,7399	0,0383	15,7420
12,0097	0,0374	16,1675
12,2216	0,0381	15,7420
12,4335	0,0385	16,0966
12,6230	0,0378	15,7775
12,8799	0,0378	16,0966
13,0822	0,0374	15,8129
13,2845	0,0368	16,0611
13,4996	0,0380	15,7775
13,6827	0,0380	16,0611
13,8978	0,0374	15,8838
14,0327	0,0378	15,9902
14,3153	0,0374	15,7775
14,5368	0,0367	16,0256
14,7873	0,0364	15,7775
14,9832	0,0373	15,9902
15,1983	0,0375	15,8129
15,3846	0,0375	15,9902
15,5901	0,0372	15,8129
15,7828	0,0362	15,9902
16,0268	0,0366	15,8838
16,2002	0,0362	16,0611
16,4282	0,0366	15,8838
16,5470	0,0367	16,0611
16,8521	0,0366	15,8129
17,0608	0,0368	16,0256
17,2631	0,0363	15,7420
17,4558	0,0353	16,0256
17,6838	0,0364	15,8129
17,8507	0,0358	15,9193
18,0691	0,0359	15,8129
18,2971	0,0358	16,0966
18,4384	0,0356	15,7066
18,6567	0,0357	16,0256
18,8879	0,0350	15,8129
19,0035	0,0353	15,9547
19,0870	0,0354	15,7775
19,4563	0,0358	15,9902
19,6426	0,0354	15,8838
19,8802	0,0354	15,9902
20,0632	0,0351	15,7775
20,2848	0,0348	16,0611
20,4935	0,0353	15,8129
20,6605	0,0348	16,0611
20,7633	0,0353	15,8129
21,0747	0,0347	15,9902
21,2546	0,0350	15,8129
21,4119	0,0341	15,9547
21,5821	0,0350	15,7066
21,7651	0,0343	16,0256
22,0284	0,0346	15,8838
22,1858	0,0343	16,0256
22,4170	0,0346	15,9193
22,5872	0,0340	15,9193
22,7895	0,0337	15,8838
22,9725	0,0328	15,9902
23,2262	0,0340	15,8838
23,3675	0,0340	15,9902
23,5826	0,0340	15,7420
23,7464	0,0343	15,9547
23,9744	0,0339	15,8129
24,0675	0,0336	15,9193
24,3629	0,0336	15,8838
24,5524	0,0337	15,9547
24,7130	0,0335	15,8129
24,9121	0,0335	16,0256
25,0437	0,0336	15,7775
25,2653	0,0330	16,0611
25,4290	0,0331	15,9193
25,6185	0,0325	15,9902
25,8240	0,0326	15,8838
26,0199	0,0329	15,9547
26,1837	0,0336	15,7420
26,3314	0,0329	16,0256
26,4406	0,0328	15,8838
26,7360	0,0326	15,9902
26,9383	0,0319	15,8129
27,1599	0,0323	15,9902
27,2819	0,0323	15,8129
27,4681	0,0328	16,0966
27,6447	0,0328	15,7066
27,8342	0,0316	16,0256
28,0237	0,0316	15,8129
28,1938	0,0316	15,9547
28,4218	0,0314	15,8838
28,4732	0,0319	15,8838
28,4700	0,0321	15,7775
28,9099	0,0320	15,9902
29,0737	0,0313	15,7420
29,2760	0,0314	16,0611
29,4622	0,0312	15,7420
29,6260	0,0312	15,9902
29,7930	0,0316	15,7420
29,9632	0,0316	15,9902
30,1880	0,0319	15,7775
30,3100	0,0308	15,9193
30,4930	0,0308	15,8129
30,6953	0,0309	15,9547
30,5572	0,0313	15,8129
31,0518	0,0313	16,0611
31,2027	0,0314	15,7066
31,4018	0,0312	16,0611
31,5559	0,0308	15,7066
31,7646	0,0304	16,0256
31,9316	0,0308	15,7066
32,0087	0,0301	15,9547
32,2367	0,0304	15,8129
32,4069	0,0307	15,8129
32,5899	0,0308	15,9547
32,7472	0,0296	15,9193
32,8596	0,0298	15,7420
32,9945	0,0301	15,9547
33,2867	0,0303	15,8129
33,3959	0,0303	15,9193
33,5886	0,0302	15,8838
33,7555	0,0304	15,8838
33,9257	0,0296	15,7775
34,1120	0,0296	15,8838
34,2918	0,0287	15,7775
34,3978	0,0294	15,9193
34,6161	0,0294	15,8838
34,7574	0,0298	15,8838
34,7927	0,0298	15,8838
34,9983	0,0291	15,9547
35,2648	0,0289	15,8129
35,4221	0,0285	15,9547
35,6180	0,0292	15,7066
35,6983	0,0289	15,9547
35,9263	0,0301	15,7775
36,0547	0,0286	15,9193
36,2121	0,0281	15,7775
36,3309	0,0291	15,9193
36,5621	0,0282	15,8129
36,7098	0,0293	15,8838
36,8158	0,0283	15,8838
36,9025	0,0291	15,8838
37,2107	0,0283	15,8838
37,3777	0,0277	15,9193
37,5126	0,0280	15,6711
37,7213	0,0276	15,9902
37,8498	0,0281	15,7775
38,0167	0,0283	15,9902
38,1677	0,0286	15,8129
38,3057	0,0276	15,8129
38,4823	0,0274	15,7775
38,6333	0,0274	15,9547
38,7264	0,0272	15,7066
38,8292	0,0280	15,9547
39,0571	0,0281	15,7775
39,2659	0,0280	15,9193
39,3526	0,0275	15,7775
39,5549	0,0271	15,9547
39,7572	0,0271	15,7775
39,8407	0,0266	15,9193
40,0590	0,0272	15,7775
40,2067	0,0271	15,9547
40,3288	0,0277	15,8129
40,5182	0,0271	15,8838
40,6274	0,0259	15,8838
40,6980	0,0267	15,8129
40,9003	0,0266	15,8838
41,0320	0,0269	15,8838
41,1476	0,0267	15,8838
41,3531	0,0266	15,9547
41,5618	0,0265	15,7775
41,6806	0,0259	15,9547
41,8573	0,0259	15,7775
41,9889	0,0261	15,9547
42,1174	0,0266	15,7420
42,2843	0,0264	15,9902
42,3132	0,0265	15,7066
42,4449	0,0258	15,9193
42,6151	0,0255	15,8838
42,8688	0,0261	15,8129
43,0486	0,0253	15,7775
43,1064	0,0256	15,9193
43,2477	0,0261	15,7420
43,3569	0,0259	15,9902
43,6009	0,0255	15,7775
43,7583	0,0253	15,9547
43,8739	0,0254	15,7420
43,9509	0,0253	15,8129
44,1436	0,0254	15,8129
44,1500	0,0255	15,9193
44,3202	0,0259	15,7420
44,5161	0,0253	15,9902
44,7088	0,0245	15,7066
44,9143	0,0250	15,9193
45,0202	0,0244	15,8838
45,1230	0,0256	15,8129
45,3125	0,0249	15,8129
45,3349	0,0249	15,8838
45,5244	0,0250	15,7420
45,6721	0,0239	15,8838
45,8712	0,0239	15,8129
45,9226	0,0237	15,9193
46,0189	0,0244	15,8129
46,2212	0,0245	15,8838
46,3721	0,0245	15,8838
46,5455	0,0238	15,8838
46,6515	0,0240	15,7066
46,7767	0,0238	15,9193
46,9533	0,0240	15,8129
46,9662	0,0245	15,8129
47,1589	0,0240	15,7775
47,3483	0,0240	15,9547
47,4736	0,0229	15,7420
47,6084	0,0232	15,9193
47,5988	0,0231	15,6711
47,8685	0,0231	15,9547
48,0002	0,0238	15,7420
48,1607	0,0234	15,9547
48,2699	0,0234	15,7420
48,4208	0,0229	15,9902
48,5332	0,0228	15,7066
48,6167	0,0224	15,9547
48,8030	0,0232	15,7066
48,8832	0,0232	15,9193
49,0663	0,0232	15,8129
49,1819	0,0232	15,8838
49,2011	0,0221	15,7420
49,4195	0,0224	15,9547
49,5544	0,0220	15,7420
49,6186	0,0226	15,8838
49,7856	0,0228	15,7066
49,9461	0,0222	15,9193
50,1099	0,0227	15,8129
50,1452	0,0221	15,9193
50,3668	0,0218	15,8838
50,4214	0,0217	15,8129
50,5787	0,0222	15,7775
50,6076	0,0228	15,8838
50,7425	0,0217	15,7420
50,7842	0,0228	15,8838
51,0765	0,0210	15,7775
51,1921	0,0210	15,8129
51,2049	0,0212	15,7420
51,4265	0,0218	15,7775
51,5389	0,0217	15,8129
51,6802	0,0221	15,8838
51,7893	0,0218	15,7420
51,9467	0,0209	15,9193
52,0462	0,0211	15,6711
52,1939	0,0209	15,9193
52,2325	0,0209	15,6711
52,2742	0,0209	15,8838
52,4829	0,0216	15,8838
52,5825	0,0209	15,7775
52,6981	0,0207	15,7420
52,8972	0,0209	15,8129
53,0160	0,0202	15,7066
53,0449	0,0202	15,8838
53,2632	0,0211	15,7420
53,3082	0,0206	15,8129
53,4495	0,0206	15,7775
53,5619	0,0200	15,7775
53,6229	0,0207	15,7775
53,6646	0,0199	15,7066
53,9312	0,0206	15,8129
54,0307	0,0199	15,8838
54,1335	0,0202	15,8129
54,2491	0,0200	15,9193
54,3486	0,0195	15,7775
54,3229	0,0194	15,8838
54,6023	0,0193	15,7420
54,6697	0,0197	15,8838
54,8206	0,0191	15,7775
54,9266	0,0200	15,8838
54,9812	0,0193	15,8129
55,0197	0,0194	15,7420
55,1931	0,0188	15,8129
55,2991	0,0185	15,8129
55,4886	0,0195	15,7420
55,5721	0,0194	15,8838
55,6780	0,0191	15,7420
55,7615	0,0188	15,7420
55,8867	0,0185	15,7420
55,8643	0,0182	15,8129
56,0955	0,0177	15,7775
56,2496	0,0194	15,8129
56,2496	0,0183	15,6356
56,2946	0,0193	15,7775
56,4904	0,0184	15,7420
56,6574	0,0184	15,8838
56,7249	0,0179	15,7775
56,8116	0,0180	15,8129
56,9175	0,0183	15,8129
57,0299	0,0180	15,7775
57,1487	0,0185	15,8129
57,2162	0,0174	15,7420
57,3061	0,0175	15,6711
57,4570	0,0174	15,8838
57,5180	0,0173	15,7066
57,4923	0,0180	15,7420
57,7460	0,0177	15,9193
57,8327	0,0179	15,7420
57,9419	0,0162	15,8129
57,9419	0,0169	15,7775
58,1089	0,0163	15,7420
58,2469	0,0167	15,7775
58,2277	0,0167	15,7775
58,4460	0,0174	15,8129
58,4236	0,0173	15,7420
58,5937	0,0169	15,8838
58,6837	0,0161	15,7420
58,7928	0,0162	15,7775
58,8057	0,0162	15,7066
58,9919	0,0164	15,7775
58,9694	0,0163	15,6711
59,1878	0,0164	15,9193
59,2552	0,0162	15,7420
59,3452	0,0157	15,7420
59,4351	0,0153	15,7775
59,5667	0,0157	15,7420
59,6053	0,0162	15,6711
59,6791	0,0158	15,8838
59,7979	0,0161	15,7066
59,8332	0,0153	15,7775
59,8846	0,0151	15,6711
60,0580	0,0147	15,8129
60,1415	0,0148	15,7420
60,2154	0,0152	15,8129
60,3727	0,0155	15,6711
60,4048	0,0147	15,8838
60,3984	0,0145	15,6711
60,5879	0,0146	15,9193
60,6874	0,0144	15,7420
60,5686	0,0145	15,8129
60,7709	0,0147	15,7066
60,9026	0,0144	15,6711
60,8191	0,0147	15,7066
61,0471	0,0134	15,9193
61,1627	0,0144	15,6711
61,3039	0,0134	15,8129
61,3168	0,0136	15,7420
61,4420	0,0140	15,7775
61,4774	0,0136	15,7775
61,5865	0,0137	15,7420
61,5384	0,0132	15,7066
61,7310	0,0134	15,7420
61,8113	0,0130	15,7775
61,8563	0,0134	15,7066
61,8787	0,0139	15,7420
61,9654	0,0134	15,8129
62,1260	0,0135	15,7420
62,2159	0,0125	15,7775
62,2480	0,0124	15,6711
62,3187	0,0119	15,7775
62,3283	0,0126	15,7420
62,5049	0,0129	15,8838
62,5435	0,0130	15,6711
62,6591	0,0125	15,8129
62,6847	0,0117	15,7066
62,7875	0,0115	15,7420
62,7747	0,0115	15,6711
62,8068	0,0124	15,8129
62,9481	0,0117	15,7066
63,0219	0,0124	15,7420
63,1279	0,0118	15,7066
63,1857	0,0112	15,8129
63,2884	0,0115	15,6711
63,3494	0,0112	15,7775
63,4072	0,0119	15,7420
63,3430	0,0109	15,7775
63,4522	0,0117	15,6711
63,6031	0,0107	15,7775
63,5871	0,0108	15,8838
63,5293	0,0109	15,7066
63,7862	0,0105	15,7066
63,7701	0,0105	15,7066
63,8921	0,0103	15,8129
63,9275	0,0108	15,7420
63,9692	0,0102	15,8129
64,0687	0,0102	15,6711
64,1458	0,0096	15,8129
64,2132	0,0098	15,7066
64,1683	0,0096	15,6711
64,3224	0,0105	15,7775
64,3128	0,0101	15,7066
64,3064	0,0103	15,7066
64,5247	0,0091	15,7775
64,5889	0,0096	15,7420

27.01.2016	12:36:28
V	I	G
[V]	[A]	[W/m²]
0,3179	0,0534	20,3512
0,6711	0,0532	20,2448
0,9537	0,0529	20,2802
1,2459	0,0530	20,1739
1,5542	0,0529	20,3866
1,8560	0,0530	20,1030
2,1739	0,0524	20,3512
2,4918	0,0523	20,2093
2,7520	0,0524	20,5284
2,8515	0,0525	20,2448
3,3396	0,0521	20,4930
3,6254	0,0520	20,3157
3,8919	0,0520	20,4575
4,2837	0,0520	20,2802
4,5181	0,0519	20,4575
4,7718	0,0521	20,2448
5,0222	0,0521	20,5284
5,4589	0,0516	20,2448
5,6067	0,0523	20,3866
5,9406	0,0523	20,1739
6,2714	0,0513	20,4575
6,6278	0,0515	20,2093
6,8815	0,0507	20,3157
7,1031	0,0512	20,2448
7,4755	0,0510	20,3157
7,7581	0,0509	20,2448
8,0696	0,0510	20,3866
8,3265	0,0507	20,1739
8,5063	0,0507	20,3157
8,8788	0,0503	20,1739
9,2320	0,0505	20,5639
9,5114	0,0500	20,2093
9,7747	0,0503	20,5284
10,0509	0,0502	20,2093
10,3078	0,0500	20,3866
10,6353	0,0504	20,2448
10,9243	0,0502	20,4930
11,1170	0,0496	20,2448
11,4445	0,0498	20,5993
11,7175	0,0502	20,2802
12,0161	0,0496	20,3866
12,2730	0,0498	20,1739
12,5748	0,0492	20,4930
12,8349	0,0496	20,2448
13,1721	0,0488	20,5639
13,4129	0,0488	20,2448
13,6731	0,0488	20,4930
13,8786	0,0485	20,2093
14,2318	0,0493	20,5284
14,5112	0,0488	20,3157
14,7873	0,0487	20,4575
15,0667	0,0486	20,3512
15,3428	0,0486	20,3866
15,6029	0,0485	20,3157
15,8566	0,0480	20,5284
16,0910	0,0476	20,1739
16,4154	0,0480	20,5284
16,6273	0,0480	20,2448
16,8714	0,0476	20,5993
17,1732	0,0470	20,2093
17,4590	0,0477	20,4930
17,7319	0,0473	20,2093
18,0145	0,0473	20,5284
18,2810	0,0473	20,2448
18,5315	0,0473	20,5284
18,7595	0,0469	20,2448
18,9554	0,0465	20,5639
19,2155	0,0467	20,2093
19,4692	0,0473	20,5284
19,8384	0,0465	20,3157
20,1146	0,0466	20,5284
20,3458	0,0465	20,3157
20,5834	0,0460	20,3866
20,8500	0,0459	20,2093
21,1454	0,0464	20,5284
21,3862	0,0465	20,2093
21,6463	0,0458	20,5639
21,8711	0,0459	20,3157
21,9739	0,0460	20,6348
22,4331	0,0455	20,2802
22,6771	0,0455	20,5993
22,8922	0,0454	20,2093
23,1716	0,0454	20,5993
23,4189	0,0454	20,2448
23,6790	0,0456	20,4930
23,8460	0,0448	20,2802
24,1703	0,0454	20,4930
24,4304	0,0451	20,3157
24,5877	0,0449	20,4930
24,9121	0,0446	20,2448
25,1850	0,0450	20,4930
25,4323	0,0446	20,2448
25,7116	0,0446	20,5284
25,8465	0,0446	20,2448
26,1676	0,0443	20,5284
26,3956	0,0438	20,2802
26,6686	0,0440	20,4930
26,8837	0,0443	20,3157
27,0571	0,0443	20,6348
27,3750	0,0438	20,2448
27,6094	0,0440	20,5639
27,8856	0,0435	20,1739
28,1104	0,0442	20,5993
28,3833	0,0438	20,2802
28,5631	0,0435	20,5993
28,8489	0,0428	20,2802
29,0994	0,0433	20,4930
29,2760	0,0428	20,1739
29,5008	0,0432	20,5639
29,6613	0,0429	20,2802
30,0435	0,0427	20,6702
30,2875	0,0424	20,2448
30,5508	0,0424	20,5639
30,7917	0,0423	20,3512
31,0325	0,0428	20,5639
31,2380	0,0422	20,3157
31,4949	0,0422	20,5993
31,5816	0,0422	20,2093
31,8096	0,0421	20,5284
32,1789	0,0421	20,2448
32,3972	0,0418	20,6348
32,6638	0,0423	20,2093
32,8853	0,0421	20,5993
33,1165	0,0420	20,3512
33,3253	0,0410	20,5993
33,4698	0,0415	20,2802
33,7652	0,0412	20,5284
33,9932	0,0421	20,1739
34,1441	0,0418	20,6702
34,4652	0,0404	20,2448
34,7125	0,0405	20,6348
34,9019	0,0412	20,3157
35,1267	0,0406	20,4930
35,4029	0,0410	20,2802
35,6084	0,0406	20,5284
35,8524	0,0411	20,2093
36,0772	0,0404	20,6348
36,2988	0,0406	20,2802
36,4080	0,0405	20,6348
36,7387	0,0405	20,3512
36,9410	0,0401	20,4930
37,1722	0,0400	20,3512
37,3906	0,0401	20,5284
37,6089	0,0391	20,2093
37,7695	0,0399	20,5284
38,0617	0,0404	20,3157
38,2640	0,0396	20,6348
38,4888	0,0401	20,2448
38,6012	0,0395	20,4575
38,9608	0,0394	20,3866
39,1920	0,0390	20,6348
39,3558	0,0393	20,2802
39,5806	0,0391	20,5639
39,7957	0,0393	20,2093
40,0558	0,0390	20,5993
40,2742	0,0393	20,2448
40,4861	0,0391	20,6702
40,6659	0,0386	20,3157
40,6499	0,0383	20,6348
41,1091	0,0391	20,3512
41,3017	0,0378	20,5993
41,4944	0,0380	20,2802
41,7160	0,0381	20,4930
41,9793	0,0383	20,3157
42,1816	0,0381	20,5993
42,2298	0,0378	20,3512
42,5380	0,0373	20,6348
42,8013	0,0374	20,2802
42,9073	0,0374	20,6702
43,2188	0,0374	20,3512
43,3922	0,0378	20,5639
43,6266	0,0381	20,2802
43,7936	0,0368	20,6348
43,9573	0,0367	20,2802
44,2078	0,0369	20,5639
44,3909	0,0369	20,2448
44,6381	0,0374	20,5284
44,8565	0,0368	20,3512
44,9624	0,0369	20,5284
45,2611	0,0372	20,3866
45,4570	0,0367	20,5993
45,6143	0,0359	20,3512
45,7845	0,0359	20,6348
46,0382	0,0364	20,2802
46,1891	0,0359	20,6702
46,4460	0,0364	20,3157
46,6740	0,0353	20,7412
46,8602	0,0359	20,3157
46,9630	0,0353	20,7766
47,1974	0,0357	20,3512
47,4382	0,0351	20,6348
47,6341	0,0359	20,2448
47,8364	0,0350	20,6348
48,0002	0,0354	20,3157
48,1190	0,0353	20,5993
48,4016	0,0351	20,3157
48,6071	0,0356	20,5993
48,7741	0,0351	20,3157
48,9121	0,0345	20,6348
49,0791	0,0350	20,2448
49,3745	0,0343	20,7412
49,5704	0,0345	20,3512
49,7342	0,0341	20,8121
49,9301	0,0345	20,3512
49,9718	0,0337	20,6702
50,2159	0,0339	20,3157
50,4792	0,0339	20,5639
50,6397	0,0339	20,2802
50,8035	0,0339	20,5993
50,9223	0,0336	20,3866
51,2466	0,0339	20,8121
51,4168	0,0329	20,3157
51,5967	0,0328	20,7766
51,7797	0,0330	20,2093
51,9467	0,0328	20,7412
52,1426	0,0336	20,2448
52,3095	0,0326	20,7766
52,5504	0,0329	20,2802
52,6531	0,0331	20,6348
52,7238	0,0323	20,2802
53,0577	0,0330	20,6348
53,2632	0,0323	20,3157
53,3788	0,0321	20,7766
53,5779	0,0318	20,3157
53,7802	0,0325	20,6702
53,9312	0,0320	20,3157
54,0853	0,0313	20,6348
54,3101	0,0318	20,2802
54,4482	0,0320	20,6348
54,5252	0,0319	20,2448
54,8142	0,0313	20,6348
55,0069	0,0312	20,3157
55,0936	0,0310	20,7412
55,3601	0,0312	20,3157
55,5399	0,0312	20,8121
55,6844	0,0304	20,3157
55,8578	0,0303	20,7766
56,0184	0,0303	20,3866
56,1501	0,0307	20,5993
56,2014	0,0309	20,2448
56,5386	0,0304	20,8121
56,7088	0,0302	20,3157
56,8694	0,0301	20,7412
56,9946	0,0301	20,2093
57,1359	0,0298	20,7412
57,3093	0,0296	20,2802
57,5244	0,0294	20,8121
57,6689	0,0289	20,3512
57,8006	0,0287	20,8121
57,9290	0,0293	20,3512
58,0960	0,0293	20,6702
58,2855	0,0287	20,3512
58,4396	0,0285	20,8121
58,6066	0,0283	20,3512
58,7479	0,0283	20,7766
58,9470	0,0281	20,3866
59,0818	0,0280	20,7412
59,1878	0,0277	20,3157
59,3837	0,0277	20,7766
59,4672	0,0276	20,1739
59,6149	0,0272	20,7766
59,7883	0,0276	20,2802
59,9842	0,0274	20,7412
60,1415	0,0276	20,2802
60,3117	0,0272	20,8121
60,4658	0,0271	20,3157
60,5847	0,0267	20,7766
60,7099	0,0266	20,3157
60,8480	0,0259	20,7412
60,9828	0,0259	20,3512
61,0053	0,0263	20,6702
61,2333	0,0259	20,3157
61,4388	0,0261	20,8121
61,5833	0,0256	20,2802
61,7278	0,0255	20,8475
61,8659	0,0253	20,3157
61,9815	0,0249	20,7766
62,1485	0,0253	20,2802
62,2801	0,0247	20,6702
62,4567	0,0250	20,3866
62,4343	0,0248	20,7412
62,6880	0,0243	20,3866
62,8132	0,0238	20,8475
62,9673	0,0239	20,3866
63,0669	0,0234	20,8121
63,1857	0,0234	20,2802
63,3719	0,0237	20,8121
63,4843	0,0231	20,2802
63,6352	0,0236	20,8475
63,7252	0,0227	20,3512
63,7508	0,0227	20,8475
63,9531	0,0222	20,3866
64,1009	0,0220	20,8121
64,2165	0,0224	20,3157
64,3513	0,0220	20,7412
64,4669	0,0220	20,3157
64,6339	0,0212	20,8121
64,7238	0,0212	20,3157
64,8458	0,0211	20,8121
64,9422	0,0212	20,2802
64,9518	0,0207	20,6348
65,1252	0,0209	20,4575
65,2761	0,0195	20,7766
65,4335	0,0202	20,4575
65,5105	0,0200	20,8475
65,6197	0,0194	20,3512
65,7514	0,0197	20,8830
65,8509	0,0194	20,3512
65,9473	0,0190	20,9184
66,0468	0,0191	20,3512
66,0372	0,0188	20,8475
66,1817	0,0191	20,3157
66,3776	0,0183	20,7412
66,5060	0,0177	20,2802
66,6055	0,0179	20,8121
66,6666	0,0179	20,3157
66,7693	0,0179	20,8475
66,8496	0,0177	20,3157
67,0037	0,0171	20,7412
67,0680	0,0171	20,3157
67,1386	0,0171	20,8475
67,1771	0,0167	20,3866
67,3216	0,0158	20,7412
67,4180	0,0157	20,2802
67,4886	0,0155	20,8121
67,5689	0,0156	20,3157
67,6588	0,0155	20,8475
67,7551	0,0148	20,3866
67,8418	0,0147	20,8121
67,9574	0,0145	20,3866
67,9992	0,0144	20,8475
68,0152	0,0146	20,2802
68,2047	0,0142	20,8121
68,2304	0,0137	20,3157
68,3075	0,0136	20,7766
68,3877	0,0128	20,3512
68,4744	0,0134	20,9184
68,5354	0,0125	20,3157
68,6254	0,0124	21,0248
68,6575	0,0124	20,3157
68,7410	0,0124	20,8475
68,6478	0,0126	20,3157
68,9047	0,0124	20,8475
69,0235	0,0120	20,3866
69,0813	0,0112	20,8121
69,1520	0,0117	20,3866
69,1969	0,0114	20,8830
69,2740	0,0108	20,4575
69,3029	0,0102	20,8475
69,3350	0,0103	20,3866
69,3671	0,0102	20,8475
69,3286	0,0103	20,3512
69,5052	0,0109	20,8121
69,6304	0,0102	20,3866
69,6947	0,0093	20,8830
69,7011	0,0097	20,3866
69,7749	0,0091	20,9184
69,8199	0,0090	20,4575
69,9034	0,0090	20,9893

27.01.2016	12:41:28
V	I	G
[V]	[A]	[W/m²]
0,4431	0,0763	29,9595
0,8831	0,0764	28,3994
1,2523	0,0763	29,8885
1,7501	0,0761	28,2576
2,2028	0,0754	29,9949
2,6267	0,0753	28,3640
3,0666	0,0762	29,9595
3,4359	0,0757	28,3640
3,8951	0,0752	29,9595
4,3254	0,0752	28,3640
4,7557	0,0748	29,9240
5,1635	0,0745	28,3640
5,5521	0,0742	29,9240
5,9599	0,0746	28,3285
6,3838	0,0743	30,0304
6,7787	0,0746	28,3285
7,2476	0,0740	29,9595
7,6939	0,0741	28,3640
8,0728	0,0734	29,9949
8,4903	0,0736	28,3994
8,9302	0,0736	30,0304
9,3220	0,0736	28,4349
9,7587	0,0732	29,9595
10,1376	0,0731	28,2931
10,4491	0,0730	29,9595
10,9243	0,0731	28,4703
11,3289	0,0730	29,9949
11,7688	0,0731	28,3994
12,1606	0,0725	29,9595
12,5524	0,0718	28,3994
12,9570	0,0714	29,9949
13,3584	0,0718	28,3994
13,7919	0,0716	29,9595
14,1676	0,0724	28,3994
14,5144	0,0714	29,9949
14,8965	0,0714	28,4349
15,2497	0,0711	29,9949
15,7635	0,0708	28,4349
16,1521	0,0715	29,9949
16,5631	0,0711	28,3285
16,9259	0,0703	30,0658
17,3273	0,0705	28,4703
17,7319	0,0707	30,0658
18,1173	0,0703	28,3994
18,4930	0,0703	29,9949
18,8494	0,0694	28,4349
19,2251	0,0694	29,9949
19,5045	0,0697	28,4349
20,0118	0,0697	30,0658
20,3972	0,0689	28,3640
20,7697	0,0688	29,9595
21,1582	0,0691	28,3285
21,5339	0,0687	30,0658
21,9450	0,0693	28,4349
22,3110	0,0688	30,0304
22,6899	0,0688	28,4349
23,0400	0,0684	29,8176
23,4317	0,0686	28,3994
23,7560	0,0678	29,8885
24,1574	0,0680	28,3994
24,5428	0,0671	29,9595
24,9442	0,0676	28,5413
25,2556	0,0672	29,9240
25,6378	0,0672	28,4349
26,0103	0,0672	29,9595
26,3924	0,0669	28,3994
26,8131	0,0666	30,0658
27,1277	0,0666	28,4703
27,5516	0,0666	30,0658
27,8856	0,0670	28,4703
28,1906	0,0665	30,0304
28,5310	0,0657	28,3640
28,9420	0,0654	30,0304
29,3177	0,0657	28,4349
29,6774	0,0659	30,1367
30,0146	0,0653	28,5413
30,4513	0,0656	30,0658
30,8045	0,0656	28,4349
31,1674	0,0649	29,9949
31,4403	0,0649	28,3994
31,8353	0,0650	30,0304
32,1564	0,0646	28,4349
32,5642	0,0649	30,0304
32,9239	0,0648	28,4703
33,2289	0,0640	29,9595
33,6399	0,0643	28,5413
33,9611	0,0643	29,9949
34,3175	0,0639	28,5413
34,6900	0,0639	29,9949
35,0304	0,0638	28,4703
35,3579	0,0634	30,1367
35,7497	0,0632	28,5767
35,9552	0,0632	30,1367
36,3855	0,0628	28,6122
36,6713	0,0626	30,0304
37,0630	0,0624	28,4703
37,3938	0,0626	30,0304
37,6796	0,0624	28,4349
38,1002	0,0622	30,1367
38,4245	0,0621	28,3994
38,7714	0,0617	30,1367
39,1085	0,0617	28,5413
39,4778	0,0619	30,1722
39,7508	0,0615	28,5413
40,1008	0,0615	30,1722
40,4379	0,0607	28,4349
40,7912	0,0607	29,9949
41,1091	0,0611	28,4349
41,4045	0,0616	30,0658
41,7320	0,0602	28,4349
42,0949	0,0605	30,0304
42,4160	0,0602	28,5413
42,7371	0,0597	30,0304
43,0936	0,0597	28,5767
43,3601	0,0596	30,0658
43,6587	0,0597	28,4703
44,0184	0,0597	30,0304
44,3941	0,0585	28,4349
44,6959	0,0591	30,0658
45,0427	0,0589	28,5413
45,3895	0,0589	30,1367
45,7171	0,0588	28,6122
46,0125	0,0586	30,0658
46,3336	0,0584	28,4703
46,6483	0,0586	30,0304
46,9566	0,0584	28,4703
47,1845	0,0578	30,0658
47,6116	0,0580	28,6476
47,9071	0,0577	30,1722
48,2346	0,0577	28,5767
48,5300	0,0578	30,1367
48,8383	0,0573	28,5767
49,1498	0,0568	30,0658
49,4452	0,0561	28,5767
49,6925	0,0562	30,1722
50,0071	0,0561	28,4703
50,3379	0,0564	29,9949
50,6076	0,0564	28,5413
50,9737	0,0557	30,2076
51,2113	0,0556	28,5767
51,5838	0,0557	30,1722
51,8728	0,0553	28,5767
52,1426	0,0548	30,2431
52,4765	0,0550	28,6476
52,7495	0,0551	30,1367
53,0449	0,0550	28,5767
53,3628	0,0546	30,0658
53,6871	0,0537	28,6122
53,9119	0,0543	30,2076
54,1624	0,0535	28,5767
54,5188	0,0532	30,1367
54,7821	0,0534	28,5413
55,0133	0,0531	30,0304
55,4019	0,0531	28,5413
55,6523	0,0527	30,1367
55,9445	0,0524	28,6122
56,2689	0,0524	30,0658
56,5290	0,0520	28,6476
56,8180	0,0523	29,9949
57,0749	0,0523	28,5413
57,2354	0,0514	30,0658
57,6079	0,0507	28,5767
57,9483	0,0513	30,1367
58,1956	0,0512	28,5413
58,4942	0,0509	30,1367
58,7254	0,0504	28,5767
58,9855	0,0503	30,0658
59,3066	0,0500	28,5413
59,5731	0,0503	30,2076
59,8236	0,0492	28,6476
60,0323	0,0487	30,0658
60,2250	0,0488	28,5767
60,6136	0,0491	30,1367
60,9026	0,0486	28,6122
61,1530	0,0483	30,1722
61,4260	0,0473	28,6476
61,5576	0,0475	30,1722
61,8627	0,0472	28,5767
62,1035	0,0469	30,0658
62,3893	0,0460	28,6476
62,6302	0,0467	30,2076
62,8935	0,0458	28,6831
63,0797	0,0450	30,2076
63,3430	0,0458	28,6122
63,6545	0,0451	30,1722
63,8921	0,0448	28,7185
64,0655	0,0435	30,1722
64,3385	0,0435	28,6476
64,5600	0,0437	30,0658
64,7977	0,0424	28,6476
65,0160	0,0428	30,1367
65,2601	0,0421	28,5767
65,5202	0,0413	30,1367
65,6839	0,0413	28,6122
65,7996	0,0410	30,1722
66,1464	0,0406	28,6122
66,4000	0,0404	30,2076
66,6023	0,0399	28,7185
66,8207	0,0394	30,0304
67,0166	0,0385	28,6476
67,1964	0,0381	30,1367
67,3987	0,0377	28,6122
67,6267	0,0377	30,1367
67,7872	0,0366	28,6122
68,0056	0,0363	30,1367
68,1052	0,0354	28,6122
68,3974	0,0356	30,1722
68,5258	0,0341	28,5767
68,7410	0,0345	30,2076
68,8983	0,0329	28,6476
69,0589	0,0332	30,2076
69,2419	0,0323	28,6476
69,4506	0,0316	30,2431
69,6272	0,0309	28,7894
69,7910	0,0302	30,2076
69,9098	0,0299	28,6831
69,9965	0,0287	30,2076
70,1763	0,0289	28,7894
70,3594	0,0285	30,2076
70,5681	0,0276	28,6831
70,7222	0,0275	30,1367
70,8828	0,0259	28,7894
71,0433	0,0259	30,2431
71,1365	0,0254	28,6831
71,2874	0,0238	30,2431
71,4030	0,0237	28,6476
71,5282	0,0232	30,1722
71,5796	0,0222	28,6476
71,6824	0,0216	30,2076
71,9168	0,0213	28,7894
71,9264	0,0209	30,2076
72,0966	0,0197	28,7894
72,2411	0,0200	30,2785
72,3342	0,0189	28,6831
72,4370	0,0184	30,1722
72,5237	0,0177	28,6831
72,5751	0,0171	30,2785
72,7196	0,0162	28,7894
72,7998	0,0156	30,2076
72,8095	0,0153	28,6476
72,8576	0,0152	30,1722
73,0182	0,0144	28,7185
73,0824	0,0134	30,1367
73,1691	0,0136	28,6831
73,2462	0,0129	30,2785
73,3746	0,0125	28,7894
73,3554	0,0120	30,0658
73,4357	0,0112	28,7894
73,5256	0,0110	30,2431
73,6155	0,0112	28,7894
73,6251	0,0098	30,2076
73,6444	0,0099	28,7185
73,7247	0,0097	30,3495
73,7503	0,0096	28,6831
73,8338	0,0085	30,2076

27.01.2016	12:46:28
V	I	G
[V]	[A]	[W/m²]
0,4463	0,0817	32,1222
0,9505	0,0813	30,5622
1,4322	0,0814	31,9449
1,8817	0,0810	30,5267
2,3441	0,0812	32,0158
2,7616	0,0813	30,6686
3,2079	0,0807	31,9095
3,6832	0,0805	30,7040
4,1456	0,0800	31,9449
4,5181	0,0800	30,7040
5,0287	0,0800	31,9449
5,5135	0,0805	30,6686
5,9406	0,0797	31,9095
6,3452	0,0800	30,5976
6,7466	0,0796	31,9449
7,2893	0,0791	30,6686
7,7132	0,0789	32,0513
8,2141	0,0790	30,6686
8,6123	0,0791	32,0868
9,0747	0,0789	30,7040
9,4632	0,0781	32,1931
9,9160	0,0781	30,6686
10,3399	0,0780	32,1577
10,7894	0,0778	30,7040
11,1908	0,0778	32,0868
11,6276	0,0776	30,7395
12,0675	0,0770	32,0868
12,5299	0,0780	30,4913
12,8671	0,0772	32,0513
13,3808	0,0776	30,5976
13,8336	0,0772	32,0868
14,2511	0,0762	30,7395
14,6524	0,0773	32,1931
15,0667	0,0762	30,5976
15,4649	0,0768	32,0868
15,9401	0,0767	30,6686
16,3608	0,0762	32,1931
16,7911	0,0758	30,5976
17,2053	0,0758	32,1577
17,6356	0,0761	30,7040
17,9985	0,0752	32,1577
18,4352	0,0749	30,6686
18,7980	0,0752	32,0158
19,1866	0,0752	30,6686
19,6426	0,0749	32,0513
20,0857	0,0745	30,7040
20,4967	0,0749	32,0868
20,9142	0,0745	30,6686
21,3059	0,0745	32,0513
21,7170	0,0738	30,6686
22,1280	0,0741	32,0868
22,5840	0,0741	30,7395
22,8955	0,0734	32,1577
23,3450	0,0731	30,7749
23,7271	0,0734	32,0513
24,1350	0,0731	30,7040
24,5717	0,0730	32,0513
24,9088	0,0726	30,6686
25,3391	0,0730	32,0868
25,7630	0,0726	30,8458
26,1772	0,0727	32,1222
26,5722	0,0720	30,8104
26,9672	0,0722	32,1577
27,3557	0,0716	30,7395
27,7411	0,0722	32,0513
28,1553	0,0711	30,7749
28,5406	0,0715	32,0868
28,9260	0,0713	30,8104
29,2888	0,0709	32,1222
29,6999	0,0708	30,7749
30,0756	0,0708	32,1931
30,4192	0,0704	30,7395
30,7242	0,0709	32,0513
31,2123	0,0704	30,7749
31,6426	0,0705	32,0868
31,9830	0,0694	30,8104
32,4037	0,0698	32,1222
32,7440	0,0693	30,7749
33,1326	0,0689	32,1577
33,5115	0,0694	30,6686
33,7973	0,0686	32,1577
34,2725	0,0689	30,7040
34,6290	0,0686	32,1577
35,0175	0,0680	30,7040
35,4446	0,0683	32,0868
35,7786	0,0681	30,7395
36,0644	0,0683	32,0513
36,4722	0,0689	30,7395
36,8671	0,0683	32,1577
37,2942	0,0675	30,8104
37,6218	0,0671	32,1577
37,9910	0,0672	30,7749
38,4021	0,0671	32,1577
38,7746	0,0669	30,8104
39,0925	0,0670	32,0513
39,4553	0,0670	30,7395
39,8086	0,0662	32,1577
40,1714	0,0666	30,8104
40,5535	0,0659	32,0868
40,9164	0,0665	30,7395
41,1990	0,0659	32,0868
41,5586	0,0656	30,8458
41,9953	0,0659	32,2286
42,3646	0,0659	30,7749
42,7532	0,0656	32,1931
43,0454	0,0649	30,7395
43,3183	0,0650	32,1931
43,6972	0,0648	30,8104
44,1340	0,0646	32,2286
44,4615	0,0648	30,7040
44,7762	0,0644	32,1931
45,1230	0,0640	30,7749
45,4955	0,0640	32,2286
45,9001	0,0634	30,7749
46,2084	0,0638	32,0868
46,5198	0,0640	30,8458
46,8538	0,0634	32,2995
47,2616	0,0630	30,8458
47,5603	0,0630	32,3349
47,9263	0,0622	30,8458
48,2282	0,0622	32,2995
48,5300	0,0621	30,8104
48,8865	0,0626	32,1577
49,2589	0,0628	30,7749
49,5704	0,0617	32,1222
49,9429	0,0617	30,7395
50,2576	0,0615	32,1577
50,6141	0,0615	30,7395
50,9255	0,0613	32,1222
51,2434	0,0615	30,8458
51,3783	0,0613	32,1577
51,9274	0,0610	30,8458
52,2742	0,0604	32,2995
52,6178	0,0599	30,8458
52,8940	0,0595	32,2995
53,2087	0,0597	30,8458
53,5137	0,0602	32,2286
53,8059	0,0592	30,8458
54,1463	0,0596	32,1931
54,5124	0,0589	30,8458
54,8014	0,0585	32,1222
55,1578	0,0585	30,8813
55,4597	0,0586	32,1577
55,7358	0,0584	30,8458
55,7519	0,0583	32,0868
56,3588	0,0583	30,9876
56,7216	0,0570	32,2286
57,0363	0,0565	30,9876
57,2740	0,0562	32,1222
57,5598	0,0564	30,8458
57,9001	0,0568	32,2995
58,2277	0,0565	30,9522
58,4781	0,0561	32,2995
58,8121	0,0556	30,8813
59,0080	0,0552	32,2286
59,4062	0,0552	30,8458
59,6695	0,0546	32,2286
59,9135	0,0543	30,7395
60,0998	0,0543	32,2995
60,4305	0,0535	30,8458
60,7870	0,0538	32,3704
61,1338	0,0525	30,8458
61,4549	0,0529	32,3349
61,6957	0,0521	30,8813
61,9719	0,0521	32,3349
62,2544	0,0515	30,8813
62,5242	0,0513	32,1931
62,8068	0,0509	30,9876
63,0283	0,0507	32,1931
63,3270	0,0500	30,9522
63,6385	0,0497	32,1577
63,8986	0,0502	30,9522
64,0848	0,0497	32,1577
64,3288	0,0488	30,8458
64,6821	0,0485	32,2995
64,9165	0,0470	30,9522
65,1862	0,0476	32,3349
65,4335	0,0473	30,8458
65,6647	0,0467	32,2286
65,9665	0,0465	30,8458
66,1560	0,0454	32,3704
66,3968	0,0446	30,8813
66,6762	0,0437	32,2995
66,9235	0,0439	30,9522
67,1129	0,0432	32,3349
67,3698	0,0429	30,9522
67,5593	0,0422	32,1931
67,7840	0,0417	30,8458
67,9414	0,0412	32,2995
68,3139	0,0401	30,9522
68,4744	0,0401	32,2286
68,7088	0,0401	30,8813
68,9015	0,0394	32,3349
69,1552	0,0384	30,9876
69,3350	0,0375	32,2995
69,5534	0,0367	30,8813
69,6561	0,0358	32,2995
69,8713	0,0350	30,9876
70,0286	0,0348	32,2286
70,2438	0,0343	30,8813
70,4461	0,0337	32,1931
70,5938	0,0325	30,8813
70,6131	0,0316	32,2286
70,9663	0,0307	31,0231
71,1172	0,0301	32,2995
71,2328	0,0294	31,0231
71,4030	0,0293	32,3349
71,5314	0,0283	31,0231
71,7434	0,0272	32,3704
71,8172	0,0264	31,0231
72,0035	0,0254	32,2995
72,1287	0,0250	30,8813
72,2925	0,0244	32,3349
72,4274	0,0243	30,9876
72,5430	0,0228	32,3704
72,6553	0,0218	30,9876
72,5590	0,0211	32,3704
72,7742	0,0206	30,9876
72,9668	0,0200	32,3349
73,0953	0,0190	31,0586
73,2141	0,0190	32,3349
73,2847	0,0177	31,0231
73,4003	0,0172	32,2995
73,4902	0,0166	31,0231
73,5545	0,0158	32,1577
73,6412	0,0155	31,0231
73,6701	0,0148	32,1931
73,7022	0,0142	31,0231
73,8499	0,0136	32,1577
73,9173	0,0129	31,0586
73,8852	0,0120	32,1577
73,8788	0,0118	30,9876
74,1132	0,0114	32,1931
74,1774	0,0110	31,0586
74,2127	0,0103	32,2995
74,2545	0,0101	31,0586
74,3187	0,0085	32,2995
74,3508	0,0083	30,9522
74,4440	0,0083	32,3349
74,4407	0,0082	30,9876
74,5274	0,0079	32,2286

27.01.2016	12:51:28
V	I	G
[V]	[A]	[W/m²]
0,4431	0,0789	30,1722
0,9505	0,0786	29,4276
1,3583	0,0780	30,2785
1,7790	0,0781	29,4985
2,2735	0,0776	30,2431
2,6652	0,0780	29,3922
3,1566	0,0773	30,2431
3,4969	0,0770	29,4631
3,9401	0,0773	30,1722
4,3961	0,0778	29,4985
4,6690	0,0775	30,3140
5,1057	0,0773	29,4276
5,7576	0,0769	30,3495
6,1526	0,0764	29,4985
6,6246	0,0764	30,2431
7,0228	0,0762	29,5340
7,4402	0,0770	30,2785
7,8898	0,0762	29,4985
8,2751	0,0757	30,2431
8,7150	0,0753	29,4276
9,1164	0,0752	30,3140
9,5660	0,0757	29,5340
9,9642	0,0754	30,3495
10,3527	0,0758	29,4631
10,7927	0,0758	30,2785
11,1619	0,0745	29,5340
11,5473	0,0748	30,2785
11,9326	0,0746	29,6049
12,3051	0,0743	30,2431
12,8671	0,0745	29,4631
13,2749	0,0749	30,3495
13,6955	0,0742	29,6049
14,1676	0,0743	30,3495
14,5593	0,0736	29,6049
14,9286	0,0735	30,3140
15,3461	0,0741	29,4985
15,7282	0,0734	30,2785
16,1232	0,0736	29,6758
16,5085	0,0727	30,3140
16,9870	0,0731	29,4985
17,3980	0,0722	30,3495
17,7255	0,0730	29,4985
18,1719	0,0727	30,2785
18,4480	0,0727	29,6049
18,7017	0,0726	30,3140
19,2958	0,0722	29,6758
19,7325	0,0718	30,3495
20,1371	0,0713	29,6404
20,5963	0,0718	30,3495
20,9559	0,0709	29,7113
21,3252	0,0718	30,2785
21,7491	0,0714	29,6404
22,1184	0,0711	30,3495
22,5262	0,0705	29,6404
22,9276	0,0708	30,3140
23,2904	0,0699	29,7113
23,6501	0,0704	30,4558
24,0707	0,0705	29,6049
24,4721	0,0702	30,4558
24,7900	0,0705	29,6758
25,0855	0,0696	30,3140
25,3937	0,0696	29,6404
25,9428	0,0691	30,2785
26,3795	0,0696	29,6404
26,7585	0,0696	30,4558
27,1117	0,0689	29,7113
27,5612	0,0691	30,4558
27,8599	0,0687	29,7113
28,2934	0,0688	30,3495
28,6145	0,0680	29,7113
29,0512	0,0689	30,3495
29,3627	0,0681	29,7113
29,7641	0,0680	30,3140
30,1462	0,0683	29,7822
30,4898	0,0677	30,4558
30,8816	0,0672	29,6404
31,1609	0,0671	30,4913
31,5238	0,0675	29,6758
31,7133	0,0670	30,4204
32,3105	0,0683	29,6049
32,7023	0,0667	30,5622
33,0844	0,0662	29,7113
33,3895	0,0661	30,3495
33,8101	0,0666	29,7113
34,1858	0,0662	30,4913
34,4877	0,0662	29,7822
34,8570	0,0662	30,3140
35,2873	0,0659	29,8176
35,6437	0,0656	30,5267
35,9520	0,0654	29,7822
36,3148	0,0650	30,4558
36,6648	0,0659	29,7467
37,0309	0,0653	30,5267
37,3424	0,0659	29,8885
37,6603	0,0643	30,4204
37,8915	0,0653	29,7467
38,2833	0,0643	30,4558
38,8003	0,0642	29,9240
39,2049	0,0642	30,3495
39,4810	0,0642	29,9595
39,8214	0,0640	30,3495
40,1586	0,0635	29,9240
40,5278	0,0635	30,3495
40,9164	0,0628	29,9595
41,2407	0,0630	30,5267
41,6196	0,0633	29,7822
41,9504	0,0634	30,4913
42,2201	0,0633	29,9949
42,5669	0,0623	30,4204
42,9169	0,0621	29,7822
43,3055	0,0622	30,4913
43,6073	0,0619	29,9595
43,7518	0,0626	30,4558
44,0826	0,0621	29,9595
44,6574	0,0622	30,5267
44,9689	0,0610	29,9240
45,2161	0,0613	30,4558
45,6625	0,0611	29,9240
45,9483	0,0607	30,4913
46,3432	0,0613	29,9240
46,6643	0,0615	30,5267
46,9405	0,0610	29,9949
47,2745	0,0607	30,4204
47,6470	0,0604	29,9949
47,9006	0,0595	30,4558
48,2217	0,0596	29,9949
48,5750	0,0601	30,4558
48,9057	0,0604	29,9949
49,1883	0,0596	30,4913
49,3970	0,0599	29,9240
49,7342	0,0592	30,5622
50,2094	0,0585	29,9949
50,4888	0,0583	30,5267
50,8453	0,0591	29,9595
51,1728	0,0585	30,4913
51,4297	0,0586	30,0658
51,7476	0,0575	30,5267
52,1201	0,0578	29,9595
52,4123	0,0569	30,4204
52,7623	0,0569	30,0658
53,0128	0,0574	30,4913
53,3178	0,0577	30,0658
53,6036	0,0573	30,4558
53,9087	0,0561	30,1367
54,2426	0,0559	30,4204
54,5509	0,0559	29,9949
54,7211	0,0568	30,5267
54,9973	0,0565	30,0304
55,3890	0,0564	30,5976
55,7390	0,0558	30,0304
56,0891	0,0551	30,4558
56,3941	0,0546	30,2076
56,7056	0,0541	30,5622
56,9239	0,0540	30,1367
57,2226	0,0541	30,5267
57,4795	0,0543	30,0304
57,8038	0,0540	30,5976
58,1410	0,0532	30,2431
58,4043	0,0530	30,4558
58,6772	0,0525	30,0658
58,9919	0,0531	30,4913
59,2777	0,0531	30,1367
59,5892	0,0530	30,4913
59,7787	0,0527	30,2431
59,8365	0,0516	30,4913
60,2892	0,0515	30,1722
60,6778	0,0505	30,5267
60,9058	0,0507	30,2076
61,1755	0,0507	30,5267
61,4677	0,0507	30,1722
61,7792	0,0502	30,4913
62,0232	0,0492	30,2431
62,2320	0,0491	30,4913
62,5081	0,0487	30,2076
62,7650	0,0488	30,5267
63,0444	0,0485	30,2076
63,3623	0,0487	30,5267
63,6224	0,0475	30,1722
63,8729	0,0465	30,5976
64,0495	0,0465	30,2431
64,3032	0,0455	30,4913
64,4637	0,0460	30,2431
64,5986	0,0465	30,5622
65,0642	0,0461	30,2785
65,3821	0,0445	30,5976
65,5330	0,0438	30,2785
65,8188	0,0435	30,4558
66,0661	0,0429	30,3140
66,2170	0,0432	30,4913
66,4610	0,0435	30,2076
66,7340	0,0423	30,6686
66,9620	0,0413	30,2785
67,1707	0,0410	30,4913
67,4437	0,0405	30,2431
67,5721	0,0394	30,4913
67,8226	0,0399	30,2076
67,9992	0,0390	30,5976
68,1822	0,0395	30,3140
68,3010	0,0375	30,5976
68,4487	0,0374	30,2431
68,8662	0,0364	30,6686
69,0235	0,0357	30,3140
69,1713	0,0354	30,5976
69,4410	0,0350	30,2785
69,5662	0,0350	30,7040
69,7300	0,0336	30,2431
69,9772	0,0328	30,5976
70,1507	0,0316	30,2785
70,2598	0,0312	30,5976
70,4364	0,0316	30,2431
70,6323	0,0301	30,7040
70,7511	0,0294	30,4204
70,8796	0,0289	30,5267
71,0851	0,0282	30,4204
71,2457	0,0274	30,6686
71,2360	0,0266	30,3140
71,2553	0,0265	30,5267
71,6567	0,0259	30,3495
71,8172	0,0256	30,5622
71,9264	0,0236	30,4558
72,0227	0,0232	30,5622
72,1929	0,0222	30,3140
72,2443	0,0218	30,6686
72,3760	0,0213	30,3495
72,5526	0,0209	30,5976
72,6200	0,0209	30,4558
72,7324	0,0193	30,5976
72,8737	0,0185	30,4204
72,9411	0,0182	30,5267
73,0278	0,0171	30,4913
73,0599	0,0167	30,6686
73,1691	0,0163	30,3495
73,2044	0,0162	30,5976
73,1434	0,0151	30,4558
73,4100	0,0145	30,7395
73,5288	0,0135	30,2785
73,6315	0,0132	30,6686
73,6219	0,0132	30,4558
73,7182	0,0126	30,6686
73,8081	0,0125	30,4204
73,8916	0,0109	30,7395
73,9334	0,0103	30,4558
73,9141	0,0101	30,6686
74,0008	0,0098	30,3495
74,1004	0,0096	30,7749
74,1068	0,0097	30,3495
74,2256	0,0087	30,7040
74,1806	0,0080	30,3140

27.01.2016	12:56:28
V	I	G
[V]	[A]	[W/m²]
0,3789	0,0698	26,2721
0,8317	0,0698	27,3712
1,2234	0,0696	26,2012
1,5478	0,0688	27,3358
2,0198	0,0687	26,0949
2,3923	0,0688	27,4776
2,8033	0,0693	26,2721
3,1180	0,0693	27,3358
3,5226	0,0691	26,0949
3,9465	0,0684	27,3358
4,3350	0,0681	26,1658
4,7075	0,0677	27,4776
5,1410	0,0681	26,2367
5,5264	0,0687	27,3712
5,8057	0,0680	26,1303
6,2200	0,0677	27,3358
6,6439	0,0675	26,2012
7,0131	0,0671	27,3358
7,3375	0,0675	26,0949
7,7067	0,0667	27,3712
8,0471	0,0670	26,2012
8,4260	0,0676	27,4776
8,8467	0,0666	26,2721
9,1935	0,0665	27,4422
9,5275	0,0665	26,1658
9,9385	0,0665	27,4776
10,3303	0,0659	26,2012
10,6835	0,0662	27,4422
11,0624	0,0662	26,1303
11,4092	0,0656	27,4422
11,7881	0,0656	26,1303
12,1253	0,0653	27,4422
12,5299	0,0657	26,1303
12,8221	0,0653	27,3358
13,2139	0,0656	26,2012
13,4707	0,0651	27,3358
13,9588	0,0659	26,2012
14,2960	0,0650	27,3712
14,6717	0,0642	26,1658
14,9254	0,0644	27,4422
15,3717	0,0646	26,2367
15,7121	0,0646	27,3712
16,1135	0,0644	26,2012
16,4089	0,0643	27,4422
16,7911	0,0638	26,1658
17,1604	0,0635	27,3003
17,5039	0,0638	26,1303
17,8411	0,0638	27,3712
18,2393	0,0633	26,1658
18,4737	0,0632	27,3358
18,8751	0,0629	26,2012
19,2637	0,0626	27,3712
19,5655	0,0626	26,1658
19,8706	0,0623	27,3358
20,2720	0,0629	26,1303
20,5642	0,0626	27,4422
20,9720	0,0626	26,2367
21,2257	0,0622	27,3712
21,6592	0,0615	26,2012
21,9482	0,0613	27,3358
22,3977	0,0616	26,2012
22,7092	0,0617	27,4422
23,0656	0,0619	26,1658
23,3771	0,0617	27,4422
23,7175	0,0610	26,2367
24,0611	0,0610	27,3712
24,4400	0,0610	26,2012
24,6937	0,0605	27,2649
25,0919	0,0611	26,1303
25,3520	0,0605	27,3712
25,7148	0,0605	26,2367
26,0199	0,0602	27,4422
26,3346	0,0605	26,1303
26,7199	0,0601	27,3003
27,0956	0,0602	26,2012
27,3975	0,0599	27,3358
27,6929	0,0601	26,2367
28,1039	0,0601	27,3712
28,4347	0,0597	26,2012
28,7397	0,0585	27,4422
29,0673	0,0591	26,3076
29,3691	0,0584	27,3712
29,6581	0,0586	26,2367
29,9536	0,0586	27,3712
30,3421	0,0592	26,2012
30,6279	0,0580	27,3003
30,9779	0,0580	26,2012
31,3022	0,0577	27,4422
31,6298	0,0579	26,2012
31,9220	0,0580	27,3712
32,2431	0,0585	26,1303
32,6124	0,0579	27,4776
32,9174	0,0579	26,1658
33,2578	0,0574	27,4776
33,5886	0,0573	26,2367
33,8711	0,0573	27,3712
34,1987	0,0570	26,2012
34,4459	0,0570	27,3712
34,7703	0,0564	26,2721
35,0914	0,0564	27,4776
35,4029	0,0567	26,2721
35,7143	0,0559	27,4422
36,0644	0,0564	26,2721
36,3726	0,0562	27,3712
36,6809	0,0562	26,2012
36,9699	0,0561	27,3712
37,2653	0,0557	26,2721
37,5961	0,0553	27,5131
37,8690	0,0552	26,2012
38,1677	0,0553	27,4422
38,5177	0,0552	26,3076
38,7746	0,0552	27,4422
39,1182	0,0552	26,2012
39,3879	0,0547	27,4422
39,6930	0,0551	26,2367
39,9531	0,0541	27,4776
40,2453	0,0541	26,2721
40,5856	0,0541	27,4422
40,8618	0,0540	26,3076
41,1797	0,0543	27,3358
41,4655	0,0538	26,3785
41,6453	0,0534	27,3712
42,0853	0,0534	26,3785
42,3454	0,0535	27,4776
42,6408	0,0535	26,2721
42,9491	0,0534	27,4776
43,2188	0,0534	26,2721
43,5271	0,0534	27,3712
43,8064	0,0529	26,2721
44,0441	0,0519	27,3712
44,3395	0,0525	26,3076
44,6381	0,0524	27,5131
44,9432	0,0524	26,2367
45,1872	0,0519	27,4422
45,5083	0,0519	26,2721
45,7845	0,0513	27,3712
46,0606	0,0513	26,2012
46,3079	0,0510	27,4776
46,6483	0,0519	26,3785
46,9180	0,0513	27,4776
47,1845	0,0510	26,3076
47,4864	0,0507	27,5131
47,7722	0,0507	26,2721
48,0227	0,0505	27,3712
48,2217	0,0503	26,3076
48,5750	0,0505	27,5131
48,8576	0,0498	26,3076
49,1241	0,0502	27,4776
49,3681	0,0503	26,2012
49,6058	0,0500	27,3712
49,8819	0,0491	26,2721
50,2191	0,0494	27,5131
50,4920	0,0494	26,2367
50,6879	0,0492	27,3712
51,0122	0,0491	26,3785
51,2820	0,0488	27,5131
51,5100	0,0480	26,2012
51,7636	0,0482	27,4776
52,0815	0,0483	26,2367
52,2903	0,0483	27,3712
52,5407	0,0483	26,2367
52,8330	0,0477	27,5131
53,1252	0,0475	26,3785
53,3532	0,0478	27,3358
53,6100	0,0472	26,2721
53,8830	0,0470	27,5131
54,1559	0,0473	26,3785
54,3807	0,0467	27,4422
54,6505	0,0466	26,4140
54,9074	0,0465	27,5485
55,1225	0,0465	26,2721
55,3794	0,0460	27,3358
55,6299	0,0456	26,3076
55,8867	0,0458	27,5131
56,1372	0,0461	26,3076
56,3909	0,0458	27,4422
56,6317	0,0450	26,3785
56,8983	0,0449	27,5131
57,1006	0,0454	26,2721
57,3703	0,0448	27,5131
57,6336	0,0448	26,4140
57,8070	0,0443	27,5131
58,0703	0,0439	26,3785
58,3497	0,0440	27,3712
58,5199	0,0437	26,2721
58,7993	0,0429	27,5131
58,9919	0,0435	26,3076
59,2199	0,0433	27,4422
59,5282	0,0433	26,4494
59,7594	0,0429	27,5131
59,9713	0,0422	26,2721
60,1897	0,0420	27,4422
60,3856	0,0421	26,3785
60,6489	0,0421	27,4776
60,9090	0,0420	26,3785
61,0760	0,0413	27,4776
61,2943	0,0408	26,4140
61,5159	0,0404	27,5485
61,7214	0,0404	26,3785
61,9654	0,0400	27,4776
62,1934	0,0401	26,3785
62,3733	0,0393	27,5485
62,6430	0,0399	26,3785
62,8742	0,0391	27,4776
63,0091	0,0383	26,2721
63,2403	0,0385	27,3358
63,4458	0,0381	26,4494
63,6866	0,0383	27,5131
63,8825	0,0378	26,4849
64,0848	0,0380	27,3712
64,2967	0,0369	26,3785
64,4637	0,0363	27,4776
64,7078	0,0357	26,4849
64,8747	0,0363	27,4422
65,0481	0,0359	26,3785
65,2665	0,0353	27,5131
65,4495	0,0350	26,4494
65,6005	0,0347	27,5131
65,8124	0,0347	26,3076
66,0179	0,0339	27,4422
66,1464	0,0337	26,4494
66,3968	0,0339	27,4776
66,5188	0,0331	26,4494
66,7436	0,0326	27,5131
66,9235	0,0325	26,3785
67,0551	0,0314	27,4776
67,2478	0,0312	26,4140
67,4308	0,0309	27,4776
67,6171	0,0308	26,4140
67,7294	0,0302	27,4422
67,8836	0,0299	26,4140
68,0409	0,0293	27,5131
68,2464	0,0286	26,4494
68,3877	0,0282	27,4422
68,5579	0,0277	26,4494
68,6864	0,0275	27,4776
68,8116	0,0274	26,4494
68,9689	0,0267	27,4776
69,0813	0,0258	26,4140
69,2258	0,0255	27,4776
69,3768	0,0248	26,4140
69,5598	0,0253	27,5131
69,6593	0,0245	26,3785
69,7974	0,0240	27,5840
69,9419	0,0238	26,4494
70,0061	0,0231	27,4776
70,1282	0,0226	26,4849
70,2855	0,0226	27,4776
70,3947	0,0217	26,4140
70,5360	0,0212	27,5485
70,6291	0,0210	26,3785
70,7126	0,0202	27,4776
70,8764	0,0197	26,4849
70,9470	0,0195	27,4422
71,0594	0,0185	26,4494
71,1846	0,0184	27,5485
71,2938	0,0184	26,4849
71,3613	0,0179	27,4776
71,5090	0,0172	26,4494
71,5636	0,0166	27,5485
71,6856	0,0158	26,4494
71,7402	0,0157	27,5131
71,8333	0,0153	26,4494
71,8076	0,0148	27,4422
71,9842	0,0142	26,5203
72,0516	0,0137	27,4776
72,0966	0,0130	26,4494
72,1801	0,0130	27,4422
72,2989	0,0129	26,5203
72,3824	0,0126	27,4422
72,3985	0,0121	26,4140
72,4402	0,0119	27,5131
72,5237	0,0109	26,4494
72,6232	0,0110	27,5131
72,6650	0,0105	26,3785
72,6586	0,0099	27,6194
72,7774	0,0098	26,4849
72,7870	0,0097	27,5131
72,8576	0,0088	26,3785
72,9122	0,0088	27,6194

27.01.2016	13:01:28
V	I	G
[V]	[A]	[W/m²]
0,3629	0,0604	22,7975
0,7032	0,0601	23,0457
1,0693	0,0594	22,7266
1,3968	0,0594	23,1521
1,7469	0,0595	22,9039
2,0712	0,0595	23,0812
2,4276	0,0597	22,7975
2,7552	0,0591	23,1876
3,0634	0,0591	22,7621
3,4520	0,0588	23,0812
3,6832	0,0585	22,7975
4,0139	0,0589	23,0457
4,3094	0,0589	22,7621
4,6658	0,0588	23,0457
5,0704	0,0589	22,8685
5,3819	0,0584	23,0457
5,7704	0,0578	22,7975
6,0337	0,0580	23,0103
6,4512	0,0580	22,8685
6,7145	0,0579	23,0812
7,0742	0,0578	22,6912
7,3953	0,0583	23,1876
7,7035	0,0574	22,7266
8,0696	0,0573	23,0812
8,3747	0,0569	22,7975
8,6637	0,0570	23,2230
9,0265	0,0578	22,7266
9,3541	0,0573	23,1876
9,6077	0,0569	22,7266
9,9417	0,0564	23,0812
10,3110	0,0562	22,7621
10,5936	0,0561	23,0812
10,9339	0,0564	22,6912
11,2358	0,0561	23,1876
11,5120	0,0561	22,7975
11,8106	0,0561	23,0457
12,1734	0,0559	22,7266
12,5170	0,0552	23,1876
12,7804	0,0557	22,7266
13,1272	0,0559	23,0812
13,3776	0,0557	22,6912
13,7341	0,0559	23,0457
14,0488	0,0552	22,8685
14,3378	0,0548	23,1521
14,6653	0,0548	22,7621
14,7359	0,0551	23,0812
15,1213	0,0550	22,6912
15,2433	0,0551	23,0812
15,7764	0,0542	22,7266
16,1199	0,0548	23,1876
16,5021	0,0540	22,6912
16,7975	0,0538	23,1876
17,0961	0,0535	22,7975
17,3627	0,0537	23,0103
17,6902	0,0543	22,7266
17,9985	0,0540	23,1521
18,2650	0,0535	22,6912
18,5444	0,0531	23,0457
18,9104	0,0532	22,7621
19,2026	0,0532	23,1876
19,4531	0,0532	22,6557
19,7421	0,0538	23,2230
20,0472	0,0530	22,6912
20,3201	0,0527	23,2585
20,6316	0,0520	22,6912
20,9463	0,0523	23,1876
21,2385	0,0525	22,6557
21,5082	0,0520	23,1876
21,8133	0,0524	22,7975
22,0638	0,0529	23,0812
22,3817	0,0515	22,7621
22,6899	0,0513	23,0812
22,9276	0,0515	22,7266
23,2390	0,0512	23,0457
23,5634	0,0516	22,7621
23,8074	0,0514	23,0812
24,1350	0,0515	22,6912
24,4047	0,0513	23,0812
24,6841	0,0507	22,6557
24,8864	0,0503	23,1521
25,0983	0,0503	22,6203
25,4066	0,0514	23,0457
25,7341	0,0510	22,6912
26,0167	0,0509	23,0103
26,3378	0,0500	22,7621
26,6043	0,0502	23,0457
26,9351	0,0497	22,6203
27,1631	0,0500	23,0457
27,4778	0,0507	22,7266
27,7411	0,0496	23,2585
27,9883	0,0502	22,6557
28,2934	0,0494	23,0812
28,5342	0,0492	22,7266
28,8393	0,0486	23,1521
29,1476	0,0494	22,6557
29,3980	0,0492	23,0457
29,6613	0,0493	22,7266
29,9471	0,0496	23,0457
30,1366	0,0485	22,6557
30,4770	0,0487	23,1521
30,7242	0,0476	22,6557
30,9843	0,0488	23,0812
31,3119	0,0491	22,7266
31,5720	0,0485	23,1876
31,8192	0,0482	22,6203
32,0793	0,0482	23,0103
32,3683	0,0477	22,7266
32,6188	0,0475	23,0812
32,8339	0,0486	22,5494
33,1711	0,0478	23,1521
33,3349	0,0473	22,6557
33,6849	0,0477	23,0812
33,9643	0,0469	22,6557
34,2019	0,0470	23,1876
34,3914	0,0466	22,6557
34,6226	0,0473	23,0457
34,8602	0,0465	22,5494
35,1235	0,0470	23,0812
35,4607	0,0475	22,6912
35,7047	0,0464	23,2230
36,0033	0,0465	22,5139
36,2378	0,0460	23,0457
36,5011	0,0455	22,6203
36,7483	0,0461	23,0103
37,0213	0,0461	22,6912
37,2878	0,0465	23,0812
37,4997	0,0456	22,6203
37,7759	0,0460	23,0103
38,0135	0,0449	22,5494
38,2993	0,0451	23,0812
38,5337	0,0456	22,6912
38,7489	0,0459	23,0812
39,0443	0,0456	22,6557
39,2627	0,0443	23,2230
39,4971	0,0451	22,5494
39,7700	0,0446	23,0812
40,0269	0,0443	22,6557
40,2228	0,0450	23,1876
40,4861	0,0454	22,5139
40,7462	0,0446	23,0103
40,9517	0,0438	22,6557
41,2054	0,0435	23,0103
41,4848	0,0431	22,4785
41,6614	0,0440	23,0812
41,9697	0,0442	22,6203
42,1687	0,0439	23,1521
42,4128	0,0438	22,5139
42,6857	0,0429	23,1521
42,9073	0,0433	22,6203
43,1481	0,0432	23,1521
43,2445	0,0438	22,6203
43,4949	0,0433	23,1521
43,7454	0,0432	22,5494
44,0119	0,0432	23,0457
44,3042	0,0423	22,5139
44,4968	0,0423	22,9748
44,8147	0,0417	22,6557
45,0331	0,0423	23,0457
45,2193	0,0422	22,6203
45,4923	0,0423	22,9748
45,7427	0,0421	22,5494
45,9226	0,0415	23,0812
46,1634	0,0412	22,4785
46,4235	0,0418	23,0457
46,6611	0,0420	22,5494
46,8313	0,0412	23,1521
47,0882	0,0421	22,6203
47,2969	0,0410	23,1521
47,5603	0,0412	22,4785
47,8043	0,0404	23,1876
47,9424	0,0405	22,4785
48,2089	0,0415	23,0103
48,4176	0,0405	22,5494
48,6231	0,0412	23,0103
48,8993	0,0396	22,6203
49,1080	0,0396	23,0812
49,3649	0,0396	22,5139
49,5351	0,0394	23,0457
49,7246	0,0396	22,5139
50,0039	0,0404	23,0103
50,2127	0,0405	22,5494
50,3475	0,0394	23,1521
50,6044	0,0393	22,4785
50,8164	0,0388	22,9748
51,0765	0,0385	22,5139
51,2659	0,0400	23,0457
51,3622	0,0388	22,5139
51,5710	0,0390	23,0103
51,8182	0,0388	22,5139
52,0848	0,0380	23,1876
52,3224	0,0383	22,4075
52,5343	0,0381	23,0457
52,7655	0,0388	22,5139
52,9486	0,0381	23,0812
53,1155	0,0377	22,6203
53,3243	0,0375	22,9748
53,5747	0,0373	22,4430
53,7931	0,0373	23,0457
53,9858	0,0369	22,5494
54,2170	0,0375	23,0103
54,4128	0,0373	22,5139
54,5573	0,0375	22,9748
54,6633	0,0366	22,4430
55,0230	0,0369	22,9748
55,2092	0,0358	22,4785
55,3922	0,0368	23,0457
55,6170	0,0366	22,4785
55,8065	0,0362	23,1876
55,9478	0,0367	22,4430
56,1886	0,0357	23,0812
56,4005	0,0356	22,4785
56,5868	0,0346	23,0457
56,7859	0,0353	22,4785
56,9721	0,0354	23,0812
57,1423	0,0353	22,4785
57,3157	0,0354	22,9748
57,5020	0,0346	22,4430
57,7171	0,0345	22,9394
57,9226	0,0336	22,4075
58,0093	0,0343	23,0103
58,2180	0,0347	22,5139
58,3176	0,0346	22,9394
58,5359	0,0345	22,4430
58,7768	0,0336	23,0457
59,0048	0,0331	22,4785
59,1300	0,0328	23,0457
59,4126	0,0329	22,5139
59,5667	0,0335	23,0812
59,7465	0,0330	22,5139
59,8975	0,0330	23,0103
60,0741	0,0325	22,4430
60,2507	0,0320	23,0103
60,4466	0,0319	22,4075
60,6168	0,0323	23,1521
60,7677	0,0319	22,4430
60,9411	0,0318	23,1876
61,0567	0,0316	22,3721
61,3007	0,0309	23,0457
61,5223	0,0304	22,4785
61,5255	0,0299	23,0103
61,7953	0,0303	22,4430
61,9847	0,0302	23,0103
62,1453	0,0301	22,5139
62,2962	0,0302	23,0812
62,4953	0,0293	22,4430
62,6334	0,0291	23,0457
62,7650	0,0283	22,4430
62,9416	0,0287	23,0103
63,0829	0,0294	22,4075
63,1889	0,0287	23,0103
63,4329	0,0289	22,3366
63,5871	0,0282	22,9748
63,7637	0,0280	22,4075
63,7958	0,0271	22,9748
64,0431	0,0277	22,3721
64,1876	0,0276	23,1876
64,2935	0,0275	22,4785
64,3674	0,0269	23,1876
64,5311	0,0258	22,3721
64,6082	0,0259	23,0457
64,8523	0,0261	22,4430
65,0000	0,0258	22,9748
65,1637	0,0256	22,4430
65,3082	0,0258	23,0103
65,4624	0,0248	22,4075
65,4720	0,0243	23,0103
65,7482	0,0243	22,3721
65,8927	0,0234	23,0457
65,9184	0,0240	22,2657
66,1399	0,0237	23,0812
66,2876	0,0244	22,3366
66,4418	0,0234	23,0812
66,5766	0,0229	22,4430
66,6537	0,0220	23,0103
66,7822	0,0221	22,3366
66,8913	0,0224	23,0457
67,0005	0,0227	22,2657
67,1418	0,0222	23,0103
67,2831	0,0217	22,3366
67,3955	0,0207	23,0812
67,5175	0,0206	22,4075
67,6427	0,0204	23,0103
67,7423	0,0207	22,4430
67,8707	0,0210	23,0457
67,9574	0,0197	22,4430
68,0987	0,0193	23,0457
68,1373	0,0184	22,3721
68,2561	0,0188	23,0103
68,4006	0,0182	22,3721
68,4873	0,0183	23,0812
68,5804	0,0185	22,4430
68,6446	0,0183	23,0103
68,6703	0,0172	22,4075
68,7121	0,0169	22,9748
68,7923	0,0161	22,3721
68,9368	0,0166	22,9394
69,1038	0,0166	22,2657
69,1841	0,0169	23,0457
69,1006	0,0161	22,2657
69,3768	0,0155	23,0103
69,5084	0,0151	22,2303
69,5855	0,0145	23,0103
69,6947	0,0146	22,2303
69,7396	0,0145	23,0812
69,8135	0,0144	22,3366
69,8970	0,0142	23,0457
69,9933	0,0139	22,2303
70,0961	0,0129	23,0457
70,1250	0,0120	22,2657
70,1121	0,0126	22,9748
70,2438	0,0125	22,3366
70,3305	0,0129	22,9394
70,3915	0,0119	22,3721
70,4814	0,0115	23,0457
70,5264	0,0107	22,2303
70,6098	0,0108	22,9394
70,5424	0,0112	22,3366
70,7511	0,0107	23,0457
70,7704	0,0103	22,3366
70,8025	0,0105	23,0103
70,7832	0,0092	22,2303
70,9888	0,0093	23,0103
71,0273	0,0096	22,1594
71,0401	0,0090	23,0812
71,1108	0,0090	22,3721

27.01.2016	13:06:28
V	I	G
[V]	[A]	[W/m²]
0,4110	0,0686	25,8821
0,8060	0,0683	26,9812
1,2299	0,0686	25,9176
1,6024	0,0683	27,0876
1,9941	0,0687	25,7758
2,3827	0,0680	27,1231
2,7680	0,0678	25,9530
3,1694	0,0672	26,9812
3,5612	0,0675	25,8821
3,9112	0,0675	27,0521
4,2387	0,0681	25,7758
4,6080	0,0676	27,1231
5,0704	0,0676	25,7758
5,4300	0,0672	27,0521
5,8700	0,0671	25,8821
6,1815	0,0665	27,1231
6,5186	0,0669	25,8821
6,9104	0,0667	27,0876
7,3246	0,0667	25,8821
7,6907	0,0666	27,1231
8,0375	0,0660	25,7758
8,4678	0,0656	27,1940
8,7343	0,0661	25,9530
9,0522	0,0657	27,0876
9,4921	0,0657	25,7758
9,9032	0,0659	27,2294
10,2596	0,0654	25,8821
10,6193	0,0649	27,0876
11,0142	0,0654	25,9176
11,3835	0,0650	27,1940
11,7143	0,0646	25,9530
12,0707	0,0648	27,1940
12,4335	0,0649	25,8467
12,8157	0,0648	27,2649
13,1496	0,0646	25,8467
13,2749	0,0644	27,0521
13,8208	0,0638	25,7758
14,2414	0,0642	27,2649
14,5914	0,0644	25,8821
14,9607	0,0642	27,1940
15,3236	0,0639	25,9530
15,6672	0,0632	27,1231
16,0236	0,0633	25,8821
16,3351	0,0628	27,1231
16,7333	0,0635	25,8821
17,0448	0,0633	27,1940
17,4076	0,0633	25,9530
17,6549	0,0634	27,2294
17,9888	0,0626	25,8821
18,4063	0,0623	27,1940
18,7788	0,0619	25,7758
19,1288	0,0626	27,1231
19,4756	0,0626	25,9530
19,8160	0,0624	27,1940
20,1853	0,0623	25,8467
20,4967	0,0611	27,2649
20,8371	0,0611	25,8467
21,2160	0,0611	27,2294
21,5115	0,0612	25,8467
21,9032	0,0612	27,2649
22,0028	0,0616	25,8821
22,4684	0,0606	27,2294
22,8762	0,0605	25,9176
23,2166	0,0604	27,1231
23,5955	0,0605	25,9530
23,9166	0,0604	27,2294
24,2634	0,0607	25,8821
24,5331	0,0602	27,3003
24,8510	0,0606	25,8467
25,2267	0,0592	27,3003
25,5093	0,0596	25,8467
25,8947	0,0596	27,3003
26,1644	0,0604	25,9176
26,3185	0,0599	27,1940
26,8131	0,0595	25,9176
27,2016	0,0591	27,1940
27,5099	0,0588	25,9176
27,7892	0,0585	27,2294
28,2035	0,0586	25,8821
28,5214	0,0589	27,2649
28,7718	0,0588	25,9176
29,0769	0,0586	27,2294
29,4622	0,0583	25,8467
29,7994	0,0575	27,2294
30,0948	0,0577	25,9530
30,2233	0,0578	27,3003
30,6375	0,0580	25,8821
31,0004	0,0579	27,1231
31,3376	0,0580	25,8821
31,6330	0,0577	27,1231
32,0055	0,0570	25,8821
32,3073	0,0568	27,2294
32,6252	0,0570	25,8467
32,9174	0,0568	27,2294
33,2321	0,0568	25,7758
33,5243	0,0569	27,2294
33,8647	0,0565	25,8467
34,1634	0,0559	27,3003
34,3400	0,0557	25,7049
34,7510	0,0559	27,2649
35,0593	0,0565	25,7758
35,4029	0,0564	27,2294
35,7240	0,0562	25,8467
36,0226	0,0551	27,2649
36,3630	0,0558	25,9176
36,6006	0,0556	27,2649
36,9217	0,0553	25,8467
37,2332	0,0551	27,3358
37,3713	0,0551	25,9530
37,7984	0,0548	27,2649
38,0842	0,0552	25,8821
38,3956	0,0546	27,3358
38,7071	0,0537	25,8821
39,0443	0,0541	27,3712
39,2787	0,0543	25,7758
39,5709	0,0542	27,2649
39,9145	0,0543	25,8821
40,1393	0,0535	27,4422
40,5150	0,0534	25,8821
40,7847	0,0531	27,2649
41,0705	0,0540	25,8467
41,3852	0,0534	27,3358
41,6710	0,0532	25,9885
41,8091	0,0537	27,2649
42,1655	0,0527	25,8467
42,5091	0,0527	27,1940
42,7628	0,0519	25,9530
43,1481	0,0523	27,3003
43,3890	0,0524	25,9176
43,6555	0,0524	27,3003
43,9445	0,0523	25,8467
44,2303	0,0514	27,3003
44,5386	0,0516	25,8821
44,8276	0,0510	27,3358
45,0909	0,0520	25,8821
45,2996	0,0519	27,3358
45,5565	0,0523	25,8467
45,9065	0,0515	27,3712
46,2116	0,0503	25,8467
46,5391	0,0504	27,3712
46,7671	0,0502	25,9176
47,0144	0,0507	27,2649
47,3226	0,0503	25,9530
47,5410	0,0507	27,3712
47,8653	0,0504	25,8821
48,1286	0,0497	27,3003
48,4144	0,0500	25,8467
48,7098	0,0494	27,3358
48,8383	0,0496	25,9176
49,1787	0,0493	27,3358
49,4741	0,0502	25,8821
49,7470	0,0494	27,4776
49,9429	0,0482	25,8821
50,2897	0,0486	27,4422
50,5627	0,0478	25,7758
50,8260	0,0485	27,4422
51,0957	0,0483	25,9176
51,3333	0,0487	27,3003
51,6063	0,0486	25,9176
51,8696	0,0473	27,3358
52,1426	0,0478	25,9530
52,1811	0,0473	27,3358
52,6467	0,0477	25,9176
52,9197	0,0469	27,4422
53,1348	0,0482	25,8467
53,3917	0,0469	27,4422
53,6678	0,0466	25,7758
53,9504	0,0466	27,3712
53,9986	0,0461	25,8821
54,4546	0,0464	27,3358
54,7050	0,0465	25,9176
54,9041	0,0466	27,3712
55,2092	0,0456	25,8467
55,3376	0,0455	27,3712
55,6170	0,0455	25,8821
55,9510	0,0448	27,4776
56,1501	0,0454	25,8821
56,4166	0,0455	27,4422
56,5065	0,0456	25,8467
56,9272	0,0448	27,3358
57,1423	0,0438	25,9176
57,3928	0,0442	27,4422
57,6304	0,0438	25,9885
57,8327	0,0440	27,3358
58,0767	0,0442	25,9176
58,3144	0,0439	27,3712
58,4814	0,0432	25,9885
58,7061	0,0423	27,4422
59,0497	0,0422	25,9176
59,3034	0,0423	27,3712
59,4800	0,0421	25,9176
59,7176	0,0423	27,3358
59,9585	0,0422	25,9885
60,1672	0,0415	27,4776
60,3663	0,0410	25,9176
60,6039	0,0410	27,3358
60,8897	0,0408	25,8821
61,0599	0,0410	27,4776
61,0406	0,0410	25,7403
61,4420	0,0404	27,5131
61,7150	0,0395	25,9176
61,9590	0,0395	27,3712
62,1581	0,0394	25,9530
62,3444	0,0383	27,3712
62,5948	0,0391	25,7403
62,7008	0,0388	27,5131
63,0315	0,0393	25,8821
63,1985	0,0377	27,4776
63,3719	0,0381	25,8821
63,6513	0,0374	27,5131
63,8022	0,0375	25,8821
63,9210	0,0375	27,4422
64,1811	0,0369	25,8467
64,4284	0,0364	27,5131
64,5857	0,0362	25,8467
64,8491	0,0356	27,5485
64,9968	0,0350	25,9176
65,1959	0,0348	27,4422
65,4046	0,0353	25,9176
65,5587	0,0347	27,4776
65,7289	0,0343	25,9530
65,9152	0,0335	27,5131
66,1303	0,0336	25,9176
66,2009	0,0329	27,5131
66,4097	0,0328	25,7758
66,6184	0,0328	27,4776
66,8239	0,0320	25,9530
66,9845	0,0318	27,5131
67,1129	0,0312	25,8821
67,2959	0,0304	27,4776
67,5239	0,0301	25,8821
67,5946	0,0296	27,3358
67,8290	0,0299	25,9530
67,9896	0,0301	27,4776
68,1469	0,0289	25,9885
68,2978	0,0285	27,4422
68,3331	0,0281	25,8467
68,5226	0,0266	27,4776
68,7570	0,0269	25,9176
68,8309	0,0267	27,4422
69,0139	0,0265	25,9176
69,1745	0,0259	27,5485
69,2997	0,0258	25,8467
69,4603	0,0250	27,4776
69,5919	0,0236	25,8821
69,6015	0,0236	27,5485
69,8071	0,0234	25,8467
69,9676	0,0232	27,5840
70,0672	0,0231	25,9176
70,0832	0,0220	27,4422
70,2085	0,0218	25,9176
70,4461	0,0207	27,4776
70,5585	0,0209	25,8821
70,6291	0,0206	27,5131
70,7479	0,0204	25,8467
70,8732	0,0194	27,6194
70,9663	0,0188	25,8467
71,1108	0,0183	27,5485
71,1814	0,0175	25,8821
71,2842	0,0180	27,4422
71,2842	0,0179	25,9885
71,3356	0,0171	27,3712
71,5507	0,0167	25,9176
71,6342	0,0157	27,4422
71,7594	0,0152	25,8467
71,7948	0,0145	27,5131
71,6727	0,0146	25,8821
71,9714	0,0146	27,5485
72,0099	0,0134	25,8821
72,1223	0,0139	27,5131
72,1480	0,0128	25,8467
72,2668	0,0126	27,4776
72,3182	0,0115	25,9176
72,3631	0,0118	27,5485
72,3888	0,0118	25,8821
72,3792	0,0114	27,5131
72,5783	0,0102	25,8821
72,6521	0,0099	27,4422
72,7003	0,0098	25,8821
72,7966	0,0092	27,4776
72,8255	0,0090	25,9530
72,7388	0,0088	27,5485

27.01.2016	13:11:28
V	I	G
[V]	[A]	[W/m²]
0,5138	0,0947	36,0577
1,1111	0,0943	35,3486
1,6377	0,0942	36,1286
2,1739	0,0942	35,2422
2,7006	0,0935	36,1641
3,1951	0,0936	35,1713
3,7057	0,0937	36,0932
4,2805	0,0932	35,2777
4,8231	0,0937	36,0932
5,3530	0,0925	35,3486
5,8346	0,0926	35,9868
6,3805	0,0916	35,3132
6,8462	0,0922	36,1286
7,4049	0,0925	35,2422
7,7999	0,0925	36,1286
8,3586	0,0920	35,1713
8,8724	0,0919	35,9868
9,4183	0,0918	35,2777
9,9128	0,0910	36,0932
10,4587	0,0914	35,2422
10,8697	0,0913	36,0932
11,4317	0,0904	35,2777
11,8716	0,0905	35,9868
12,4400	0,0904	35,1359
12,9120	0,0894	36,0932
13,4129	0,0898	35,1713
13,9492	0,0899	36,0577
14,4116	0,0889	35,2422
14,8355	0,0891	35,9868
15,3942	0,0894	35,1713
15,8181	0,0886	35,9159
16,3479	0,0887	35,1713
16,8071	0,0882	35,9868
17,3498	0,0882	35,1713
17,8604	0,0881	35,9868
18,3099	0,0878	35,2777
18,8366	0,0878	35,9513
19,2637	0,0876	35,2422
19,6875	0,0868	35,9513
20,2463	0,0871	35,1004
20,7183	0,0865	36,0932
21,1936	0,0865	35,1713
21,6271	0,0868	35,9868
22,1569	0,0862	35,2777
22,6321	0,0862	36,0577
23,0689	0,0855	35,1004
23,4863	0,0861	35,9159
24,0194	0,0851	35,1713
24,4464	0,0855	35,9868
24,9891	0,0854	35,1359
25,4258	0,0850	35,9868
25,8690	0,0843	35,1004
26,3571	0,0843	35,9868
26,7970	0,0843	35,1359
27,2177	0,0843	35,9513
27,6672	0,0834	35,1359
28,2003	0,0841	35,8804
28,6562	0,0835	35,2422
29,1122	0,0835	35,8804
29,5297	0,0826	35,1359
30,0017	0,0832	35,8450
30,4288	0,0824	35,1359
30,8206	0,0826	35,8450
31,3311	0,0822	35,1713
31,7967	0,0818	35,8804
32,2303	0,0816	35,1004
32,6927	0,0817	35,9513
33,1326	0,0812	35,1004
33,5661	0,0806	35,9513
33,9835	0,0807	35,1004
34,3978	0,0812	35,9513
34,8859	0,0806	35,1004
35,3611	0,0805	35,9159
35,7786	0,0797	35,0650
36,1960	0,0801	35,8450
36,6392	0,0797	35,1359
37,0502	0,0800	35,8095
37,4773	0,0791	35,1004
37,8562	0,0795	35,8450
38,3635	0,0786	35,1004
38,7649	0,0789	35,8095
39,2594	0,0781	35,1359
39,6287	0,0790	35,7741
40,0751	0,0780	35,1359
40,5150	0,0778	35,8450
40,9036	0,0778	35,1004
41,3210	0,0775	35,9159
41,7320	0,0770	35,1359
42,1880	0,0770	35,8450
42,6376	0,0772	35,0650
42,9780	0,0768	35,8450
43,4404	0,0763	35,1359
43,8289	0,0763	35,8804
44,2624	0,0764	35,0650
44,5867	0,0752	35,8804
45,0620	0,0759	34,9941
45,5019	0,0759	35,8450
45,8423	0,0757	34,9941
46,2983	0,0748	35,8095
46,6708	0,0745	35,0650
47,1203	0,0743	35,8450
47,4703	0,0743	35,1004
47,7915	0,0740	35,8095
48,3213	0,0741	35,0650
48,7163	0,0740	35,8804
49,1144	0,0735	35,0295
49,5287	0,0730	35,8095
49,8851	0,0724	35,0295
50,2865	0,0726	35,7032
50,6333	0,0722	35,1004
50,8966	0,0726	35,7032
51,4233	0,0720	34,9941
51,8471	0,0713	35,8095
52,2260	0,0714	34,8877
52,6210	0,0708	35,8095
52,9710	0,0713	35,0650
53,3596	0,0703	35,7032
53,7096	0,0704	35,0295
53,9665	0,0702	35,8095
54,4417	0,0702	34,9941
54,8335	0,0689	35,8095
55,2477	0,0696	34,9941
55,5656	0,0694	35,7741
56,0024	0,0687	35,0295
56,3074	0,0681	35,6677
56,6671	0,0677	35,0650
56,9304	0,0681	35,6677
57,4153	0,0676	35,0295
57,8102	0,0676	35,5968
58,1249	0,0670	35,0650
58,5070	0,0670	35,6322
58,8603	0,0661	35,0295
59,2649	0,0654	35,6322
59,6085	0,0653	35,1004
59,7401	0,0653	35,5613
60,2892	0,0643	34,9231
60,5750	0,0644	35,7032
60,9539	0,0640	34,8877
61,2654	0,0635	35,7032
61,6347	0,0632	34,8522
62,0040	0,0626	35,7032
62,3058	0,0623	34,9231
62,5659	0,0621	35,6677
62,9288	0,0612	34,8877
63,2916	0,0611	35,5968
63,6385	0,0596	34,9231
63,9242	0,0597	35,6677
64,3160	0,0596	34,9941
64,5504	0,0588	35,5968
64,9293	0,0588	34,9231
65,0481	0,0583	35,5968
65,4881	0,0575	34,9231
65,7771	0,0564	35,6677
66,0853	0,0564	34,8522
66,4354	0,0557	35,7741
66,6730	0,0547	35,0295
67,0134	0,0546	35,6322
67,2446	0,0534	34,9941
67,3570	0,0529	35,6322
67,8611	0,0516	34,8522
68,1501	0,0512	35,6322
68,3877	0,0503	34,8877
68,6960	0,0494	35,5968
68,8855	0,0493	34,8877
69,2226	0,0485	35,6677
69,4442	0,0475	34,8877
69,4859	0,0469	35,5968
69,9098	0,0455	34,9231
70,0993	0,0442	35,5968
70,3497	0,0432	34,8877
70,6387	0,0427	35,5259
70,8667	0,0415	34,8877
71,0241	0,0406	35,5968
71,3035	0,0396	34,9231
71,2874	0,0385	35,5613
71,6695	0,0374	34,8522
71,9007	0,0366	35,5968
72,0260	0,0354	34,8522
72,2829	0,0348	35,5968
72,4081	0,0331	34,8877
72,6329	0,0321	35,5613
72,7774	0,0309	34,9231
72,7228	0,0307	35,5259
73,0856	0,0287	34,8522
73,2012	0,0283	35,5613
73,3393	0,0269	34,8168
73,5416	0,0259	35,5613
73,6701	0,0249	34,8877
73,7439	0,0240	35,4550
73,9366	0,0227	34,9231
73,8017	0,0222	35,5613
74,1421	0,0212	34,8522
74,2577	0,0199	35,5613
74,3187	0,0193	34,8522
74,4150	0,0177	35,4550
74,5692	0,0174	34,8522
74,5981	0,0163	35,5259
74,6944	0,0156	34,9231
74,5724	0,0155	35,4195
74,8325	0,0145	34,8522
74,9353	0,0132	35,5613
75,0027	0,0128	34,9231
75,0798	0,0124	35,4195
75,1440	0,0108	34,8522
75,1568	0,0110	35,4550
75,2532	0,0110	34,8522
75,1472	0,0103	35,3841
75,2949	0,0091	34,9231
75,3559	0,0082	35,3486
75,4651	0,0083	34,8877
75,5165	0,0074	35,4550
75,5165	0,0072	34,7813

27.01.2016	13:16:28
V	I	G
[V]	[A]	[W/m²]
0,5106	0,0843	31,3067
0,9280	0,0846	32,5477
1,4322	0,0841	31,2004
1,9588	0,0840	32,6186
2,4308	0,0835	31,2358
2,7680	0,0834	32,4413
3,3332	0,0839	31,2358
3,8502	0,0837	32,4768
4,3061	0,0828	31,3067
4,7396	0,0826	32,6186
5,2053	0,0823	31,2004
5,6741	0,0827	32,4413
6,1301	0,0819	31,2358
6,5925	0,0819	32,4413
7,0645	0,0823	31,2004
7,5012	0,0822	32,6540
7,9283	0,0819	31,2713
8,4068	0,0810	32,4768
8,8210	0,0813	31,2713
9,3316	0,0810	32,5477
9,8036	0,0806	31,2713
10,2179	0,0810	32,5477
10,5839	0,0813	31,2004
11,1202	0,0806	32,4768
11,5826	0,0806	31,2713
12,0033	0,0800	32,4768
12,5010	0,0801	31,2713
12,9184	0,0799	32,6186
13,3262	0,0796	31,2713
13,7694	0,0796	32,5477
14,2446	0,0799	31,1295
14,6878	0,0789	32,5831
15,1405	0,0788	31,2713
15,4392	0,0788	32,5831
15,9562	0,0780	31,2004
16,4218	0,0783	32,4768
16,8232	0,0785	31,2713
17,2438	0,0781	32,5477
17,6934	0,0778	31,2004
18,0627	0,0780	32,5831
18,5347	0,0772	31,2004
18,8976	0,0772	32,5831
19,3793	0,0775	31,2358
19,8320	0,0775	32,4413
20,2912	0,0773	31,2004
20,6926	0,0767	32,4768
21,1229	0,0761	31,2358
21,5339	0,0764	32,5477
21,9771	0,0759	31,2713
22,3464	0,0761	32,5477
22,7221	0,0767	31,3067
23,1780	0,0758	32,4413
23,6276	0,0748	31,2004
24,0675	0,0751	32,4413
24,4786	0,0748	31,2358
24,8832	0,0751	32,5477
25,2428	0,0751	31,2358
25,7020	0,0753	32,6540
26,1002	0,0748	31,2004
26,4791	0,0742	32,5477
26,9062	0,0745	31,1295
27,3493	0,0738	32,5477
27,7282	0,0738	31,2713
28,1007	0,0743	32,4413
28,5117	0,0732	31,2004
28,9131	0,0736	32,4768
29,3627	0,0727	31,1295
29,6967	0,0726	32,4413
30,1494	0,0727	31,2358
30,5380	0,0722	32,4768
30,9394	0,0727	31,2004
31,3600	0,0731	32,5477
31,7261	0,0725	31,2713
32,0536	0,0721	32,4768
32,4968	0,0716	31,2358
32,8950	0,0715	32,4768
33,3124	0,0721	31,1295
33,6817	0,0715	32,4413
34,0991	0,0720	31,3067
34,4588	0,0711	32,5831
34,8377	0,0708	31,2004
35,2423	0,0711	32,4413
35,6373	0,0707	31,1295
36,0290	0,0707	32,5831
36,3084	0,0703	31,2004
36,8061	0,0704	32,4413
37,1626	0,0696	31,2004
37,5383	0,0694	32,4768
37,8979	0,0691	31,1295
38,2768	0,0694	32,4058
38,6718	0,0693	31,2358
39,0700	0,0689	32,5477
39,3815	0,0693	31,0940
39,7861	0,0687	32,4413
40,2003	0,0683	31,2713
40,5150	0,0677	32,5831
40,9132	0,0680	31,2713
41,2728	0,0680	32,5477
41,6646	0,0681	31,2713
42,0114	0,0676	32,5477
42,3614	0,0671	31,2004
42,6119	0,0676	32,4058
43,1385	0,0667	31,1295
43,4693	0,0671	32,4413
43,8739	0,0670	31,2358
44,2528	0,0670	32,5477
44,5578	0,0665	31,2713
44,8693	0,0657	32,5477
45,2868	0,0659	31,1295
45,6175	0,0654	32,4413
46,0317	0,0661	31,2358
46,3432	0,0656	32,4768
46,6611	0,0654	31,3067
47,0497	0,0651	32,4058
47,3933	0,0651	31,2004
47,7850	0,0648	32,4058
48,1126	0,0642	31,1295
48,4819	0,0644	32,5477
48,7387	0,0640	31,2713
49,1722	0,0642	32,5477
49,5030	0,0634	31,2358
49,8498	0,0634	32,5831
50,1709	0,0628	31,0940
50,5081	0,0629	32,4768
50,8806	0,0630	31,0940
51,2210	0,0626	32,4768
51,5260	0,0628	31,0940
51,9017	0,0626	32,4768
52,2485	0,0619	31,2358
52,4958	0,0617	32,4768
52,8908	0,0613	31,1295
53,2472	0,0615	32,4768
53,5811	0,0612	31,2358
53,8605	0,0615	32,4413
54,2555	0,0610	31,2358
54,4257	0,0602	32,5477
54,8303	0,0601	31,0940
55,1835	0,0596	32,5477
55,5303	0,0599	31,1295
55,8386	0,0601	32,6186
56,1565	0,0596	31,2358
56,4712	0,0591	32,5831
56,7762	0,0589	31,0586
57,1359	0,0588	32,4768
57,4570	0,0583	31,0940
57,7653	0,0580	32,5831
58,0157	0,0580	31,2004
58,3561	0,0580	32,5831
58,6644	0,0574	31,2004
58,9245	0,0569	32,4768
59,2777	0,0567	31,0940
59,5667	0,0559	32,4413
59,8332	0,0568	31,0940
60,2122	0,0559	32,4058
60,5012	0,0557	31,0940
60,7934	0,0556	32,4413
61,0952	0,0547	31,2358
61,3650	0,0541	32,4413
61,6347	0,0540	31,0940
61,9494	0,0538	32,4058
62,2159	0,0531	31,0940
62,4985	0,0532	32,4768
62,7811	0,0527	31,0940
63,0155	0,0524	32,4768
63,3334	0,0519	31,0586
63,6834	0,0516	32,4413
63,9082	0,0509	31,2004
64,1876	0,0504	32,6186
64,4444	0,0503	31,0586
64,6114	0,0498	32,5477
64,9968	0,0486	31,0940
65,2697	0,0485	32,5477
65,5202	0,0478	31,1295
65,7642	0,0477	32,5477
66,0051	0,0478	31,0940
66,2170	0,0470	32,4058
66,5188	0,0466	31,0586
66,7982	0,0456	32,3349
66,9780	0,0456	31,1295
67,2767	0,0443	32,3704
67,4308	0,0446	31,2004
67,7487	0,0432	32,3704
67,9446	0,0431	31,2358
68,2175	0,0427	32,4413
68,4102	0,0418	31,2713
68,6318	0,0406	32,4413
68,7570	0,0404	31,0940
69,0300	0,0396	32,4413
69,2869	0,0394	31,0586
69,4506	0,0391	32,4768
69,6947	0,0378	31,1295
69,8681	0,0362	32,4768
70,0029	0,0359	31,2004
70,2502	0,0354	32,4058
70,4942	0,0347	31,0940
70,6355	0,0343	32,4768
70,8186	0,0337	31,2004
70,8186	0,0323	32,4768
71,1589	0,0318	31,0231
71,3324	0,0307	32,4058
71,4993	0,0302	31,0586
71,6246	0,0292	32,4058
71,7980	0,0286	31,0940
71,8397	0,0283	32,3704
72,1094	0,0271	31,2004
72,2604	0,0259	32,4413
72,3599	0,0255	31,1295
72,4948	0,0239	32,4413
72,6168	0,0228	31,1295
72,6810	0,0229	32,3704
72,8287	0,0221	31,1295
72,9700	0,0212	32,2995
73,0792	0,0207	31,2004
73,2301	0,0197	32,4413
73,2815	0,0191	31,2358
73,3457	0,0183	32,3349
73,4806	0,0179	31,0940
73,5673	0,0173	32,4058
73,6604	0,0163	31,0940
73,7214	0,0152	32,4768
73,7279	0,0148	31,0586
73,9141	0,0136	32,4413
73,9687	0,0136	31,0940
74,0329	0,0137	32,4058
74,1389	0,0128	31,0231
74,2352	0,0120	32,5477
74,2545	0,0114	31,2004
74,2866	0,0107	32,4058
74,3701	0,0101	31,2004
74,4022	0,0101	32,4413
74,5018	0,0097	31,0231
74,5178	0,0090	32,4768
74,5885	0,0088	30,9876
74,6238	0,0077	32,4058
74,6816	0,0077	31,0586

27.01.2016	13:21:28
V	I	G
[V]	[A]	[W/m²]
0,5748	0,1039	39,8159
1,2267	0,1034	38,9296
1,7629	0,1039	39,7096
2,3859	0,1038	38,9296
2,9029	0,1039	39,8514
3,4777	0,1027	38,9296
4,1167	0,1023	39,7096
4,6947	0,1023	38,8941
5,2245	0,1019	39,7096
5,8057	0,1021	39,0005
6,3163	0,1024	39,7096
6,9810	0,1023	38,9296
7,5622	0,1012	39,7450
8,0953	0,1006	38,9296
8,6348	0,1007	39,7096
9,2481	0,1006	39,0005
9,6463	0,1010	39,8159
10,3142	0,1000	38,9296
10,9018	0,1008	39,8868
11,4060	0,0998	38,9296
11,9936	0,0998	39,7096
12,5235	0,0998	38,9296
13,0886	0,0991	39,6741
13,5960	0,0992	38,8587
14,1740	0,0992	39,8159
14,7006	0,0990	38,8587
15,3075	0,0987	39,8159
15,8245	0,0983	38,8941
16,3608	0,0980	39,7096
16,8778	0,0978	38,8587
17,4494	0,0979	39,8514
17,9631	0,0970	38,8941
18,4609	0,0980	39,7450
19,0421	0,0969	38,8941
19,5880	0,0971	39,6387
20,1275	0,0962	38,9296
20,5995	0,0962	39,6387
21,1068	0,0964	38,9296
21,6367	0,0960	39,6387
22,1569	0,0957	38,8941
22,7060	0,0951	39,7450
23,2712	0,0953	38,8941
23,7689	0,0942	39,7096
24,2859	0,0949	38,8232
24,8029	0,0946	39,8159
25,3070	0,0946	38,8587
25,7887	0,0943	39,6387
26,3731	0,0937	38,8941
26,7745	0,0935	39,6387
27,3622	0,0926	38,7877
27,8727	0,0932	39,7450
28,3640	0,0933	38,8232
28,8875	0,0926	39,7450
29,3820	0,0931	38,8587
29,9247	0,0920	39,6741
30,3806	0,0915	38,7877
30,8976	0,0916	39,6387
31,4082	0,0916	38,8587
31,9091	0,0919	39,6387
32,3748	0,0914	38,9296
32,8693	0,0913	39,7096
33,4248	0,0909	38,8232
33,8647	0,0909	39,7450
34,3753	0,0895	38,8232
34,8313	0,0906	39,6741
35,3515	0,0900	39,0005
35,8492	0,0904	39,6032
36,3598	0,0900	38,8587
36,8061	0,0888	39,6741
37,2846	0,0888	38,8587
37,7727	0,0878	39,6741
38,2511	0,0888	38,7877
38,7521	0,0881	39,6741
39,2145	0,0886	38,7877
39,7154	0,0877	39,6741
40,0911	0,0872	38,7877
40,6627	0,0876	39,7096
41,1091	0,0864	38,8232
41,6068	0,0873	39,6741
42,0724	0,0864	38,8587
42,4899	0,0867	39,5678
42,9105	0,0868	38,8587
43,4660	0,0855	39,6741
43,9477	0,0855	38,8587
44,3652	0,0851	39,6741
44,7216	0,0853	38,7877
45,2579	0,0853	39,6387
45,6560	0,0849	38,7877
46,1763	0,0843	39,6387
46,6868	0,0840	38,7523
47,1460	0,0841	39,6387
47,4960	0,0833	38,7877
47,9970	0,0837	39,6032
48,4754	0,0835	38,7877
48,8832	0,0834	39,5678
49,3906	0,0832	38,8232
49,7759	0,0819	39,6032
50,2255	0,0822	38,7523
50,6943	0,0817	39,5678
51,1246	0,0818	38,8587
51,5196	0,0813	39,4968
51,9595	0,0817	38,8587
52,2999	0,0807	39,4968
52,8875	0,0801	38,7523
53,3178	0,0799	39,6387
53,7513	0,0794	38,6814
54,1848	0,0797	39,5678
54,5830	0,0797	38,8232
54,9716	0,0788	39,4968
55,4340	0,0790	38,7877
55,8482	0,0781	39,4968
56,2849	0,0779	38,6459
56,6735	0,0768	39,6032
57,0363	0,0776	38,6814
57,5148	0,0773	39,5678
57,9387	0,0769	38,7877
58,2855	0,0761	39,6032
58,7061	0,0752	38,7877
59,0561	0,0759	39,6032
59,5635	0,0753	38,7523
59,8750	0,0745	39,6032
60,3278	0,0740	38,7523
60,5493	0,0742	39,4614
61,1466	0,0725	38,8232
61,4934	0,0726	39,6387
61,8820	0,0720	38,6814
62,2898	0,0724	39,6032
62,6880	0,0715	38,7523
62,9962	0,0711	39,5678
63,3687	0,0711	38,6459
63,7733	0,0693	39,4968
64,1458	0,0687	38,6814
64,5215	0,0678	39,6032
64,8715	0,0676	38,7877
65,2183	0,0670	39,6387
65,5972	0,0670	38,6459
65,9408	0,0660	39,6032
66,3165	0,0649	38,6814
66,6055	0,0644	39,6032
66,9780	0,0630	38,7523
67,2959	0,0623	39,4968
67,6749	0,0619	38,6814
67,9542	0,0612	39,4968
68,2529	0,0602	38,6814
68,6125	0,0589	39,6387
68,8501	0,0588	38,6105
69,1809	0,0564	39,4614
69,5148	0,0565	38,6814
69,7814	0,0552	39,4968
70,0704	0,0543	38,6459
70,3369	0,0530	39,6032
70,6709	0,0519	38,8232
70,8828	0,0505	39,4259
71,1975	0,0488	38,7523
71,4126	0,0477	39,5678
71,7241	0,0467	38,6105
71,8269	0,0455	39,4968
72,1897	0,0443	38,6814
72,3985	0,0422	39,4614
72,6489	0,0411	38,6814
72,8095	0,0391	39,4614
72,9861	0,0386	38,7523
73,2333	0,0377	39,4614
73,3136	0,0356	38,7523
73,5994	0,0346	39,5678
73,7471	0,0326	38,6105
73,9334	0,0318	39,4968
74,0072	0,0298	38,6459
74,2449	0,0285	39,5678
74,3733	0,0276	38,6814
74,5114	0,0263	39,4259
74,6270	0,0248	38,6459
74,7394	0,0231	39,4968
74,9545	0,0224	38,6814
75,0091	0,0206	39,3905
75,1472	0,0202	38,6814
75,2596	0,0193	39,4968
75,2339	0,0179	38,6814
75,4009	0,0166	39,4968
75,4972	0,0158	38,6105
75,5422	0,0146	39,4259
75,6802	0,0136	38,6459
75,7156	0,0134	39,4259
75,7348	0,0121	38,6105
75,8376	0,0119	39,4259
75,9050	0,0110	38,6459
75,9853	0,0101	39,4968
76,0303	0,0093	38,6105
76,0495	0,0085	39,5678
76,1073	0,0090	38,6459
76,1651	0,0083	39,4614
76,1394	0,0080	38,6105

27.01.2016	13:26:28
V	I	G
[V]	[A]	[W/m²]
0,4207	0,0753	27,9031
0,8413	0,0746	29,4631
1,2042	0,0748	27,9740
1,7372	0,0742	29,5340
2,1547	0,0741	27,8322
2,6042	0,0742	29,6049
2,9928	0,0746	27,8322
3,3749	0,0742	29,4985
3,7763	0,0743	27,7967
4,2259	0,0736	29,6049
4,6465	0,0731	27,8676
4,8231	0,0731	29,6049
5,4782	0,0731	27,9031
5,8700	0,0731	29,6049
6,3195	0,0731	27,9740
6,7113	0,0731	29,6049
7,0163	0,0724	27,7967
7,4980	0,0722	29,4631
7,8898	0,0721	27,8676
8,3137	0,0720	29,5340
8,7472	0,0716	27,9740
9,0907	0,0721	29,6758
9,5435	0,0720	27,9031
9,9064	0,0718	29,5340
10,2885	0,0711	27,7612
10,4587	0,0716	29,6758
11,1041	0,0714	27,8676
11,5537	0,0714	29,5340
11,9422	0,0714	27,8676
12,2955	0,0708	29,4985
12,5170	0,0704	27,8676
13,0276	0,0699	29,4985
13,4996	0,0702	27,9031
13,8689	0,0702	29,6049
14,2735	0,0704	27,8676
14,5465	0,0703	29,5340
15,0057	0,0699	27,8676
15,3942	0,0696	29,5340
15,7764	0,0689	27,9031
16,0910	0,0693	29,6758
16,5406	0,0684	28,0094
16,9773	0,0691	29,4985
17,3530	0,0693	27,9031
17,6998	0,0688	29,4985
17,9214	0,0687	27,8322
18,4769	0,0683	29,5340
18,8141	0,0683	27,8676
19,1737	0,0677	29,6049
19,5944	0,0683	27,9740
19,8384	0,0678	29,4631
20,2976	0,0677	27,8676
20,6990	0,0678	29,4631
21,0394	0,0670	27,9740
21,4569	0,0669	29,6049
21,8101	0,0670	28,0094
22,1794	0,0671	29,4631
22,5390	0,0670	27,8676
22,8794	0,0662	29,5340
23,0014	0,0665	27,8322
23,6533	0,0659	29,6049
24,0129	0,0657	27,9031
24,3790	0,0656	29,6049
24,7676	0,0660	27,8676
24,9923	0,0653	29,5340
25,4547	0,0661	27,8322
25,8401	0,0657	29,4985
26,1483	0,0648	27,9740
26,5305	0,0649	29,6049
26,8805	0,0649	27,8676
27,2915	0,0646	29,5340
27,6351	0,0649	27,8676
27,9402	0,0646	29,4631
28,0429	0,0648	27,8676
28,6787	0,0638	29,4985
29,0576	0,0642	27,9740
29,3434	0,0635	29,4985
29,7288	0,0639	28,0094
29,8733	0,0638	29,4985
30,3935	0,0639	27,8322
30,7339	0,0634	29,4631
31,0742	0,0626	28,0094
31,4371	0,0623	29,5340
31,7871	0,0630	27,9031
32,1532	0,0630	29,6049
32,4968	0,0628	27,9740
32,7890	0,0626	29,6404
33,0684	0,0622	27,9031
33,4826	0,0616	29,5340
33,8326	0,0623	27,9031
34,2115	0,0619	29,6404
34,5648	0,0619	27,9740
34,5680	0,0616	29,4276
35,1909	0,0616	27,7967
35,5185	0,0612	29,4631
35,9199	0,0607	27,9740
36,2506	0,0611	29,6404
36,4882	0,0610	27,8322
36,8736	0,0606	29,4985
37,1690	0,0604	27,8676
37,5062	0,0602	29,4985
37,8690	0,0596	28,0094
38,1580	0,0606	29,5340
38,5337	0,0601	27,8322
38,8259	0,0601	29,5340
39,1599	0,0597	27,8676
39,2273	0,0596	29,6404
39,8471	0,0594	27,9740
40,1521	0,0586	29,4631
40,4508	0,0585	27,7967
40,7462	0,0586	29,4631
40,9292	0,0592	27,8322
41,3788	0,0588	29,4631
41,7095	0,0579	27,8676
42,0692	0,0588	29,4631
42,3518	0,0584	27,9031
42,6247	0,0578	29,5340
43,0486	0,0584	27,9031
43,3569	0,0580	29,4276
43,6266	0,0575	27,8676
43,9060	0,0574	29,6049
44,2720	0,0570	28,0449
44,5996	0,0568	29,4276
44,8565	0,0569	27,8676
45,1840	0,0564	29,4985
45,2996	0,0568	27,9740
45,7781	0,0561	29,4985
46,1634	0,0564	27,9740
46,4460	0,0558	29,5340
46,7318	0,0559	27,8322
46,9277	0,0552	29,4631
47,3098	0,0559	27,9740
47,6020	0,0553	29,5340
47,9809	0,0556	27,9031
48,2667	0,0548	29,6404
48,5075	0,0551	27,9031
48,8222	0,0548	29,4631
49,1080	0,0546	27,8676
49,4613	0,0546	29,5340
49,5769	0,0547	27,8322
49,9975	0,0535	29,6049
50,3572	0,0541	27,9031
50,6269	0,0537	29,5340
50,8806	0,0532	27,8676
50,9705	0,0529	29,4631
51,4971	0,0535	27,7967
51,7283	0,0531	29,4631
52,0623	0,0529	27,9031
52,3802	0,0529	29,4985
52,5183	0,0523	27,8322
52,8875	0,0521	29,4985
53,1605	0,0519	27,8322
53,4816	0,0519	29,5340
53,7353	0,0525	27,9740
54,0243	0,0520	29,4276
54,2812	0,0516	27,8322
54,6183	0,0512	29,6049
54,8752	0,0505	27,9031
54,9138	0,0512	29,4631
55,3665	0,0505	27,8676
55,6652	0,0509	29,6049
55,9735	0,0505	27,8676
56,2592	0,0496	29,4631
56,3556	0,0505	27,7967
56,7505	0,0500	29,4631
57,0556	0,0493	27,9031
57,3639	0,0497	29,5340
57,5790	0,0493	27,8322
57,7910	0,0485	29,5340
58,0928	0,0488	27,9740
58,3850	0,0483	29,5340
58,6644	0,0480	27,9031
58,6098	0,0485	29,4276
59,1204	0,0478	27,7612
59,4030	0,0476	29,4985
59,6406	0,0475	27,7967
59,8814	0,0470	29,4985
60,0548	0,0467	27,8676
60,4145	0,0465	29,6049
60,6617	0,0461	27,7967
60,8608	0,0460	29,4631
61,1787	0,0458	27,9740
61,3200	0,0456	29,4985
61,6797	0,0451	27,7967
61,8627	0,0446	29,4631
62,1228	0,0448	27,7967
62,0457	0,0440	29,4985
62,5531	0,0442	27,7967
62,8806	0,0432	29,5340
63,1054	0,0438	27,9031
63,2852	0,0424	29,4276
63,3751	0,0424	27,8322
63,7541	0,0420	29,4985
63,9788	0,0418	27,8322
64,1715	0,0412	29,4631
64,4541	0,0415	27,8322
64,5215	0,0404	29,3922
64,8780	0,0406	27,9031
65,0738	0,0396	29,4276
65,2569	0,0395	27,8676
65,4752	0,0390	29,4276
65,6550	0,0388	27,7967
65,9633	0,0385	29,4985
66,1688	0,0383	27,8322
66,3069	0,0375	29,4276
66,3165	0,0377	27,8676
66,7276	0,0362	29,4631
66,9042	0,0364	27,8322
67,0936	0,0357	29,4276
67,3409	0,0351	27,9031
67,4180	0,0350	29,3922
67,6492	0,0345	27,9740
67,8675	0,0337	29,4631
68,0795	0,0335	27,8676
68,2400	0,0323	29,4276
68,3171	0,0325	27,8322
68,5611	0,0319	29,3922
68,7153	0,0310	27,8676
68,8919	0,0308	29,4276
68,8887	0,0303	27,8322
69,2002	0,0298	29,4631
69,3864	0,0291	27,7612
69,5148	0,0289	29,4276
69,6593	0,0282	27,7967
69,7075	0,0276	29,3922
69,9580	0,0269	27,8676
70,1410	0,0259	29,5340
70,3080	0,0265	27,8676
70,4525	0,0254	29,5340
70,5360	0,0250	27,8322
70,6837	0,0243	29,3922
70,8186	0,0237	27,8322
70,9181	0,0229	29,4631
70,9374	0,0231	27,8676
71,1943	0,0218	29,5340
71,3227	0,0218	27,8676
71,3998	0,0204	29,3922
71,5250	0,0204	27,7967
71,4062	0,0199	29,3922
71,7241	0,0194	27,7612
71,8943	0,0188	29,4631
71,9360	0,0183	27,7612
72,0260	0,0172	29,3922
72,0035	0,0177	27,9031
72,2218	0,0163	29,5340
72,3374	0,0161	27,7612
72,4145	0,0152	29,4276
72,4723	0,0151	27,7967
72,5108	0,0145	29,4631
72,6104	0,0137	27,7967
72,7388	0,0134	29,4985
72,8031	0,0129	27,8676
72,6264	0,0128	29,4276
72,9187	0,0124	27,7612
73,0054	0,0112	29,4631
73,0439	0,0114	27,9740
73,0792	0,0108	29,4985
73,0182	0,0109	27,9031
73,2237	0,0103	29,4631
73,2815	0,0098	27,9031
73,3393	0,0091	29,4985
73,4068	0,0096	27,8322
73,4196	0,0082	29,4631
73,4838	0,0079	27,9740

27.01.2016	13:31:28
V	I	G
[V]	[A]	[W/m²]
0,3885	0,0788	31,0231
0,9377	0,0786	29,3567
1,3230	0,0788	31,0586
1,7982	0,0780	29,4631
2,2767	0,0786	31,0586
2,6941	0,0783	29,3922
3,0217	0,0786	30,9876
3,6125	0,0778	29,4985
3,9850	0,0775	31,0586
4,4506	0,0778	29,4985
4,8617	0,0781	31,0231
5,3594	0,0781	29,4985
5,7768	0,0776	31,0231
6,2039	0,0769	29,6049
6,6278	0,0764	31,0231
7,0613	0,0767	29,5340
7,4627	0,0761	31,0231
7,8898	0,0768	29,4985
8,3426	0,0769	30,9876
8,7311	0,0762	29,4985
9,1710	0,0761	31,0231
9,6527	0,0754	29,4985
10,0669	0,0752	31,0940
10,4330	0,0754	29,5340
10,9115	0,0753	31,0940
11,3000	0,0758	29,6404
11,6436	0,0752	31,0940
12,0386	0,0751	29,4276
12,5524	0,0745	31,0586
13,0116	0,0746	29,5340
13,3391	0,0745	31,0586
13,7533	0,0748	29,4631
14,2157	0,0745	31,2004
14,6235	0,0742	29,6049
15,0474	0,0741	31,0586
15,4584	0,0741	29,6049
15,8277	0,0738	31,0940
16,3062	0,0735	29,5340
16,6626	0,0738	31,2713
17,0512	0,0738	29,4631
17,4718	0,0740	31,0940
17,8668	0,0726	29,4985
18,2265	0,0727	31,0231
18,6728	0,0720	29,6049
19,0421	0,0724	31,0940
19,4788	0,0725	29,4631
19,8834	0,0731	31,2004
20,3041	0,0730	29,6404
20,5288	0,0715	31,0940
21,0972	0,0718	29,6049
21,4569	0,0709	31,0940
21,8518	0,0711	29,6049
22,1569	0,0716	31,0231
22,6610	0,0711	29,6049
23,0560	0,0714	31,1295
23,4253	0,0705	29,6404
23,8171	0,0702	31,2004
24,1960	0,0704	29,4985
24,5620	0,0704	31,0940
24,9988	0,0708	29,6758
25,3712	0,0704	31,1295
25,6924	0,0696	29,5340
26,1066	0,0694	31,0940
26,4951	0,0691	29,4631
26,9351	0,0691	31,0940
27,2241	0,0694	29,5340
27,6479	0,0689	31,1295
28,0076	0,0691	29,6404
28,3769	0,0686	31,0940
28,6595	0,0684	29,4276
29,1636	0,0681	31,0586
29,5746	0,0680	29,4985
29,9247	0,0688	31,0940
30,2650	0,0683	29,6404
30,6793	0,0687	31,2004
31,0486	0,0672	29,6049
31,4243	0,0671	31,1295
31,7550	0,0672	29,6404
32,1275	0,0670	31,1295
32,5449	0,0677	29,6404
32,9142	0,0670	31,2004
33,2578	0,0672	29,6049
33,5372	0,0669	31,1295
33,9900	0,0667	29,4985
34,3657	0,0661	31,0586
34,7317	0,0657	29,5340
34,9405	0,0665	31,0586
35,3964	0,0665	29,6049
35,7593	0,0662	31,0586
36,1478	0,0659	29,5340
36,1318	0,0649	31,0940
36,8286	0,0644	29,5340
37,1915	0,0648	31,0940
37,5479	0,0650	29,5340
37,8851	0,0651	31,1295
38,2383	0,0651	29,5340
38,6012	0,0644	31,0940
38,9704	0,0639	29,4985
39,3718	0,0639	31,0940
39,6705	0,0638	29,5340
40,0558	0,0642	31,2358
40,3833	0,0640	29,6404
40,6916	0,0642	31,0586
41,0063	0,0634	29,6049
41,3563	0,0633	31,1295
41,7320	0,0629	29,5340
42,0660	0,0628	31,0940
42,3229	0,0632	29,4985
42,7564	0,0622	31,1295
43,0968	0,0628	29,5340
43,4211	0,0622	31,1295
43,6716	0,0621	29,6049
44,1243	0,0616	31,1295
44,4583	0,0613	29,5340
44,7698	0,0617	31,2713
45,1519	0,0621	29,6404
45,3606	0,0616	31,2358
45,8038	0,0606	29,6758
46,1313	0,0606	31,0940
46,3529	0,0607	29,6404
46,7896	0,0606	31,0586
47,0047	0,0605	29,6049
47,4158	0,0610	31,1295
47,7593	0,0606	29,6049
48,0162	0,0596	31,0586
48,4208	0,0596	29,5340
48,7195	0,0591	31,0940
49,0695	0,0594	29,6404
49,2718	0,0599	31,0586
49,6732	0,0594	29,6758
50,0007	0,0592	31,2358
50,3700	0,0586	29,6758
50,6076	0,0586	31,0940
50,8774	0,0583	29,4985
51,2916	0,0575	31,2358
51,5067	0,0583	29,6758
51,9242	0,0579	31,2713
52,2004	0,0579	29,6404
52,5472	0,0574	31,2004
52,8426	0,0567	29,6404
53,0866	0,0562	31,2004
53,4495	0,0569	29,6404
53,7578	0,0574	31,1295
54,0821	0,0569	29,7113
54,3422	0,0559	31,2004
54,6472	0,0558	29,6758
54,9908	0,0553	31,1295
55,3055	0,0552	29,7113
55,5560	0,0552	31,2004
55,7487	0,0558	29,6404
56,2271	0,0553	31,2004
56,3588	0,0548	29,7113
56,7955	0,0546	31,2004
57,0492	0,0543	29,7467
57,3799	0,0532	31,2004
57,6465	0,0537	29,7113
57,9419	0,0541	31,2004
58,2437	0,0535	29,7113
58,5103	0,0532	31,2358
58,8282	0,0525	29,7467
59,0786	0,0519	31,1295
59,2585	0,0513	29,7113
59,5892	0,0520	31,0940
59,8975	0,0519	29,6758
60,1961	0,0519	31,0940
60,5012	0,0513	29,6404
60,6232	0,0505	31,0940
61,0535	0,0502	29,7113
61,1755	0,0500	31,1295
61,5673	0,0505	29,6404
61,7407	0,0500	31,2004
62,0586	0,0494	29,6404
62,3379	0,0491	31,2004
62,5980	0,0483	29,6404
62,8838	0,0478	31,1295
63,1568	0,0472	29,6758
63,3848	0,0469	31,1295
63,6609	0,0473	29,7467
63,8953	0,0475	31,2358
64,1619	0,0466	29,7113
64,4059	0,0455	31,1295
64,6468	0,0451	29,7822
64,9261	0,0450	31,0940
65,0706	0,0450	29,8176
65,3917	0,0446	31,2004
65,6005	0,0442	29,8176
65,8477	0,0440	31,2358
65,9730	0,0429	29,7113
66,3487	0,0421	31,2004
66,5349	0,0413	29,7467
66,7211	0,0415	31,1295
66,9684	0,0417	29,7822
67,1803	0,0404	31,2358
67,4404	0,0402	29,7467
67,6813	0,0395	31,1295
67,8450	0,0386	29,6758
68,0024	0,0380	31,1295
68,2721	0,0381	29,7467
68,4680	0,0372	31,2713
68,6350	0,0374	29,7822
68,7859	0,0363	31,1295
68,9882	0,0357	29,7467
69,2066	0,0347	31,1295
69,3992	0,0339	29,6404
69,4699	0,0340	31,0586
69,6754	0,0332	29,6758
69,9227	0,0326	31,2358
70,1250	0,0319	29,7467
70,2406	0,0309	31,2358
70,4653	0,0302	29,6758
70,6098	0,0294	31,1295
70,7287	0,0289	29,7113
70,9053	0,0285	31,2004
71,0273	0,0280	29,7113
71,2103	0,0266	31,1295
71,3420	0,0261	29,8176
71,4993	0,0254	31,2358
71,5860	0,0250	29,8176
71,7434	0,0240	31,2713
71,8397	0,0240	29,8176
71,8943	0,0234	31,2358
71,9521	0,0222	29,7113
72,2186	0,0207	31,0940
72,3182	0,0202	29,7467
72,4049	0,0191	31,2004
72,3760	0,0199	29,8176
72,6682	0,0190	31,2713
72,7677	0,0183	29,8176
72,8673	0,0177	31,2004
72,9604	0,0171	29,7822
73,0118	0,0158	31,0940
73,1113	0,0148	29,7822
73,1049	0,0151	31,0940
73,2719	0,0145	29,8885
73,3586	0,0144	31,2004
73,3875	0,0129	29,7822
73,5031	0,0126	31,2004
73,5641	0,0117	29,8885
73,5416	0,0117	31,0586
73,6669	0,0117	29,8176
73,7182	0,0110	31,2004
73,8435	0,0107	29,9240
73,7407	0,0093	31,0231
73,9205	0,0093	29,9595
73,9687	0,0088	31,0231
74,0297	0,0083	29,8885
74,0490	0,0085	31,0940

28.01.2016	08:56:03
V	I	G
[V]	[A]	[W/m²]
0,2280	0,0340	14,5365
0,4142	0,0335	14,2174
0,6294	0,0339	14,4302
0,7514	0,0332	14,1111
1,0276	0,0332	14,4656
1,1721	0,0335	14,1465
1,3166	0,0330	14,4656
1,5767	0,0325	14,1820
1,7726	0,0325	14,4656
1,9652	0,0328	14,3238
2,1900	0,0329	14,5365
2,2510	0,0330	14,2174
2,5753	0,0326	14,5720
2,7712	0,0329	14,2174
2,9543	0,0325	14,5720
3,1277	0,0330	14,1465
3,3043	0,0326	14,4656
3,5323	0,0328	14,2884
3,6575	0,0328	14,4302
3,8919	0,0328	14,3593
4,0942	0,0319	14,5365
4,2580	0,0325	14,2174
4,4121	0,0325	14,4302
4,6305	0,0321	14,3238
4,7750	0,0328	14,4302
4,9805	0,0325	14,2174
5,1635	0,0323	14,4656
5,4108	0,0321	14,2174
5,5328	0,0319	14,4302
5,7223	0,0318	14,2884
5,9310	0,0320	14,5720
6,1269	0,0326	14,1820
6,2971	0,0314	14,4302
6,4801	0,0319	14,3238
6,6599	0,0325	14,4656
6,8526	0,0326	14,1820
7,0324	0,0318	14,4302
7,2476	0,0314	14,2884
7,4017	0,0320	14,6074
7,5751	0,0313	14,2884
7,7678	0,0320	14,4302
7,8545	0,0316	14,1111
8,1692	0,0313	14,6074
8,3169	0,0319	14,2174
8,5192	0,0310	14,4302
8,6637	0,0316	14,1820
8,8050	0,0313	14,4302
9,0522	0,0313	14,2174
9,1999	0,0316	14,4656
9,3444	0,0310	14,2174
9,5435	0,0312	14,6074
9,7426	0,0309	14,2174
9,9385	0,0312	14,4656
10,0894	0,0309	14,2884
10,2821	0,0307	14,5365
10,4876	0,0313	14,3593
10,5743	0,0312	14,4302
10,7894	0,0307	14,1820
10,9982	0,0309	14,6074
11,1780	0,0303	14,2884
11,3578	0,0307	14,4656
11,5120	0,0307	14,2884
11,6532	0,0307	14,5365
11,8331	0,0302	14,2174
11,9679	0,0309	14,5365
12,2248	0,0303	14,3238
12,4111	0,0308	14,6074
12,5813	0,0304	14,1820
12,7386	0,0304	14,4302
12,8606	0,0307	14,3238
13,0758	0,0304	14,5365
13,2139	0,0309	14,2174
13,4129	0,0303	14,5365
13,6249	0,0301	14,3238
13,7694	0,0303	14,3947
13,9299	0,0303	14,2174
14,1547	0,0304	14,6074
14,3121	0,0299	14,1465
14,4919	0,0304	14,5720
14,5176	0,0302	14,1465
14,8002	0,0298	14,5365
14,9960	0,0302	14,2884
15,1759	0,0298	14,6074
15,3332	0,0298	14,1820
15,5162	0,0302	14,5720
15,5805	0,0299	14,1820
15,8117	0,0299	14,4656
16,0076	0,0308	14,3238
16,1296	0,0296	14,4656
16,3447	0,0296	14,2174
16,4764	0,0298	14,5365
16,6562	0,0299	14,2174
16,8649	0,0296	14,5720
16,9998	0,0299	14,1820
16,9934	0,0291	14,4302
17,3594	0,0292	14,3238
17,5200	0,0293	14,4656
17,6517	0,0293	14,1465
17,8315	0,0291	14,6074
18,0081	0,0294	14,2174
18,1879	0,0294	14,4656
18,2907	0,0291	14,3238
18,4673	0,0294	14,5720
18,6953	0,0291	14,3238
18,8109	0,0291	14,4302
18,9714	0,0289	14,2884
19,1898	0,0285	14,5720
19,3343	0,0292	14,1465
19,4981	0,0287	14,6074
19,6169	0,0289	14,1820
19,8095	0,0287	14,5365
19,9862	0,0293	14,2884
20,1242	0,0285	14,4302
20,2848	0,0287	14,2884
20,4614	0,0283	14,5365
20,6380	0,0286	14,2174
20,7793	0,0287	14,4302
20,9238	0,0283	14,2884
21,1357	0,0291	14,4656
21,2578	0,0291	14,2174
21,4248	0,0282	14,4656
21,5982	0,0287	14,1820
21,7491	0,0286	14,5720
21,9385	0,0280	14,2884
22,0573	0,0287	14,5365
22,2468	0,0282	14,1465
22,3913	0,0282	14,5365
22,5583	0,0281	14,3238
22,7349	0,0283	14,6074
22,8505	0,0281	14,1820
23,0303	0,0275	14,5365
23,2069	0,0277	14,2174
23,2936	0,0276	14,5720
23,4895	0,0280	14,1820
23,6372	0,0280	14,5365
23,8267	0,0275	14,3593
23,9937	0,0277	14,4302
24,1317	0,0280	14,1820
24,2827	0,0274	14,5720
24,3790	0,0272	14,1820
24,6359	0,0272	14,6074
24,7997	0,0276	14,3238
24,9345	0,0280	14,5365
25,0726	0,0280	14,0756
25,2300	0,0277	14,4302
25,3777	0,0276	14,3947
25,5350	0,0274	14,5365
25,6057	0,0269	14,1820
25,8593	0,0274	14,4656
25,9782	0,0271	14,1111
26,1580	0,0272	14,5720
26,3057	0,0269	14,2884
26,4919	0,0271	14,4656
26,6493	0,0271	14,3238
26,7617	0,0272	14,4302
26,9158	0,0271	14,1820
27,0314	0,0272	14,4302
27,2433	0,0269	14,1820
27,3654	0,0265	14,4656
27,4649	0,0265	14,1820
27,6865	0,0265	14,6074
27,8599	0,0266	14,2174
27,9016	0,0271	14,4656
28,1264	0,0266	14,2884
28,2805	0,0266	14,6074
28,4379	0,0265	14,1820
28,6017	0,0267	14,4302
28,7173	0,0269	14,2884
28,8714	0,0265	14,5365
29,0191	0,0264	14,3238
29,1379	0,0265	14,4656
29,3210	0,0263	14,1820
29,4944	0,0263	14,4656
29,6164	0,0263	14,1820
29,7994	0,0263	14,5720
29,9439	0,0265	14,2884
30,0852	0,0263	14,5365
30,1270	0,0261	14,1465
30,3614	0,0263	14,6074
30,5348	0,0258	14,1820
30,6375	0,0258	14,4302
30,7692	0,0264	14,3238
30,9651	0,0258	14,6074
31,1288	0,0263	14,3593
31,2316	0,0259	14,4656
31,2894	0,0258	14,1820
31,5495	0,0259	14,5365
31,6747	0,0256	14,1820
31,8481	0,0261	14,5720
31,9830	0,0259	14,2174
32,1179	0,0259	14,5365
32,2270	0,0249	14,1820
32,3619	0,0256	14,4656
32,5546	0,0258	14,2174
32,7183	0,0258	14,5720
32,8179	0,0253	14,2174
32,9624	0,0249	14,6074
33,1711	0,0253	14,2174
33,2996	0,0254	14,5720
33,4409	0,0258	14,2174
33,4826	0,0254	14,4302
33,7170	0,0254	14,2174
33,8294	0,0249	14,5720
33,9803	0,0245	14,2884
34,1473	0,0256	14,5720
34,2276	0,0254	14,1820
34,4170	0,0250	14,4656
34,5326	0,0253	14,1111
34,6771	0,0254	14,5720
34,8120	0,0253	14,1820
34,9694	0,0249	14,4302
35,0850	0,0247	14,1820
35,2327	0,0249	14,5365
35,3868	0,0249	14,2174
35,4928	0,0249	14,6074
35,6084	0,0253	14,2884
35,8139	0,0247	14,4656
35,9488	0,0245	14,2174
36,0676	0,0243	14,4656
36,2217	0,0245	14,2174
36,2891	0,0248	14,5365
36,4786	0,0247	14,1465
36,6327	0,0247	14,5720
36,7226	0,0244	14,2884
36,9057	0,0243	14,5720
37,0662	0,0244	14,3238
37,2011	0,0243	14,5720
37,3456	0,0243	14,1820
37,4259	0,0243	14,4302
37,5640	0,0244	14,1465
37,6571	0,0244	14,3947
37,8530	0,0244	14,1820
37,9910	0,0239	14,5365
38,1195	0,0238	14,1820
38,2865	0,0239	14,6074
38,4374	0,0232	14,2884
38,5562	0,0238	14,4656
38,6686	0,0239	14,2884
38,7714	0,0236	14,4302
38,9415	0,0236	14,1820
39,0539	0,0237	14,5365
39,1984	0,0238	14,1820
39,3365	0,0237	14,6074
39,4842	0,0237	14,2884
39,6351	0,0237	14,5720
39,6448	0,0239	14,1465
39,8664	0,0239	14,4656
40,0012	0,0236	14,1820
40,1072	0,0231	14,4656
40,2453	0,0229	14,2174
40,4315	0,0237	14,5720
40,5375	0,0231	14,2884
40,6820	0,0238	14,5720
40,7783	0,0232	14,3238
40,9260	0,0232	14,5365
41,0641	0,0234	14,1820
41,1990	0,0236	14,5365
41,3049	0,0231	14,1820
41,3306	0,0224	14,5365
41,5715	0,0229	14,2884
41,6678	0,0228	14,5365
41,8476	0,0229	14,2174
41,9632	0,0228	14,5365
42,0853	0,0231	14,1820
42,1976	0,0229	14,5365
42,3132	0,0227	14,2884
42,4674	0,0226	14,6074
42,5766	0,0224	14,2174
42,7082	0,0228	14,4302
42,8688	0,0228	14,1820
42,9555	0,0227	14,4656
43,0647	0,0227	14,2884
43,2509	0,0218	14,6074
43,3601	0,0227	14,1820
43,4789	0,0224	14,4656
43,4885	0,0227	14,1820
43,7133	0,0224	14,6074
43,8771	0,0226	14,2884
44,0055	0,0227	14,5365
44,1179	0,0222	14,2174
44,2303	0,0221	14,6074
44,3459	0,0216	14,2174
44,4390	0,0221	14,5365
44,5835	0,0218	14,2884
44,7505	0,0213	14,5720
44,8629	0,0222	14,1820
44,9656	0,0218	14,5365
45,0588	0,0212	14,1820
45,1904	0,0218	14,6074
45,3060	0,0218	14,2174
45,4248	0,0222	14,6074
45,6015	0,0221	14,1820
45,6882	0,0213	14,4302
45,8327	0,0216	14,3593
45,9707	0,0213	14,5720
46,0606	0,0216	14,2174
46,1923	0,0216	14,6074
46,2822	0,0216	14,1820
46,4267	0,0216	14,6074
46,5487	0,0211	14,1820
46,6965	0,0212	14,6074
46,8088	0,0216	14,2884
46,9052	0,0216	14,5365
47,0015	0,0207	14,2174
47,1364	0,0210	14,6074
47,1845	0,0211	14,1465
47,3965	0,0213	14,5365
47,4639	0,0207	14,2174
47,5892	0,0207	14,5720
47,7658	0,0211	14,2174
47,8878	0,0218	14,6074
47,9873	0,0206	14,2174
48,0580	0,0209	14,5720
48,2250	0,0210	14,2174
48,3245	0,0201	14,5365
48,4465	0,0211	14,1465
48,5493	0,0201	14,6074
48,6809	0,0202	14,2884
48,7933	0,0207	14,4656
48,9057	0,0210	14,1820
48,9699	0,0210	14,5365
49,1209	0,0202	14,1465
49,2300	0,0206	14,5720
49,3906	0,0204	14,2174
49,5030	0,0209	14,5720
49,5672	0,0204	14,1465
49,7021	0,0202	14,6074
49,7727	0,0199	14,2174
49,9204	0,0210	14,5720
50,0264	0,0201	14,1465
50,1292	0,0202	14,6074
50,2929	0,0199	14,2174
50,3700	0,0202	14,4656
50,4567	0,0202	14,2884
50,6269	0,0200	14,5365
50,6108	0,0195	14,1111
50,7971	0,0202	14,5720
50,9512	0,0197	14,1820
51,0893	0,0197	14,5720
51,1503	0,0200	14,1820
51,2402	0,0194	14,5365
51,4040	0,0195	14,2884
51,4811	0,0197	14,5720
51,5292	0,0199	14,3593
51,7155	0,0199	14,4656
51,8054	0,0194	14,1820
51,9242	0,0194	14,6784
52,0591	0,0197	14,1820
52,1393	0,0197	14,5365
52,2582	0,0190	14,2174
52,3127	0,0195	14,4656
52,4508	0,0194	14,3238
52,6210	0,0191	14,6429
52,7013	0,0194	14,1465
52,7238	0,0191	14,5720
52,9357	0,0194	14,1820
53,0417	0,0194	14,6074
53,0609	0,0189	14,1820
53,1990	0,0190	14,5365
53,3178	0,0185	14,2174
53,4752	0,0189	14,6074
53,5522	0,0189	14,2174
53,6293	0,0190	14,5365
53,7674	0,0188	14,2884
53,7835	0,0189	14,5365
53,8477	0,0185	14,1465
54,0917	0,0191	14,4656
54,1495	0,0184	14,2174
54,2908	0,0183	14,6074
54,3486	0,0180	14,2174
54,5124	0,0182	14,6429
54,5638	0,0179	14,1111
54,6601	0,0189	14,6074
54,7468	0,0182	14,1820
54,8849	0,0175	14,5720
54,9844	0,0185	14,2174
55,0936	0,0182	14,5365
55,1578	0,0177	14,1820
55,3055	0,0182	14,6074
55,4340	0,0180	14,2174
55,4340	0,0177	14,5365
55,5945	0,0177	14,2884
55,7069	0,0182	14,6074
55,7583	0,0179	14,1820
55,8835	0,0179	14,5365
56,0088	0,0174	14,2884
56,1083	0,0177	14,4656
56,1501	0,0179	14,1820
56,2753	0,0182	14,6429
56,3684	0,0177	14,1465
56,4680	0,0173	14,6074
56,5932	0,0171	14,2174
56,7024	0,0173	14,4656
56,7505	0,0169	14,1820
56,8854	0,0173	14,6074
56,8918	0,0177	14,0756
57,0749	0,0171	14,6784
57,1744	0,0173	14,2174
57,2386	0,0167	14,5365
57,3671	0,0166	14,2884
57,4442	0,0169	14,6074
57,5630	0,0169	14,1820
57,5951	0,0167	14,5720
57,7267	0,0172	14,1820
57,7845	0,0163	14,4656
57,9194	0,0164	14,2884
58,0093	0,0167	14,4302
58,0960	0,0163	14,3238
58,2052	0,0167	14,6074
58,3144	0,0163	14,1820
58,3176	0,0167	14,5365
58,4268	0,0158	14,0756
58,4974	0,0162	14,6074
58,6644	0,0163	14,2884
58,7318	0,0161	14,4656
58,8185	0,0158	14,2884
58,9277	0,0161	14,6074
58,8956	0,0158	14,1465
59,0818	0,0158	14,5365
59,2006	0,0158	14,2884
59,2970	0,0153	14,6074
59,3965	0,0161	14,1820
59,4479	0,0161	14,5365
59,5346	0,0156	14,1820
59,6213	0,0157	14,6074
59,6213	0,0153	14,2174
59,7915	0,0153	14,4302
59,8750	0,0153	14,2174
59,9906	0,0156	14,5720
60,0612	0,0152	14,1465
60,1255	0,0148	14,6074
60,2218	0,0146	14,2174
60,2700	0,0147	14,6074
60,3952	0,0152	14,1820
60,4658	0,0152	14,5720
60,5493	0,0151	14,1465
60,6200	0,0145	14,5365
60,7581	0,0147	14,2884
60,8480	0,0145	14,5720
60,8769	0,0146	14,1465
60,9122	0,0142	14,4656
61,0310	0,0144	14,1465
61,1338	0,0147	14,6429
61,2237	0,0144	14,2884
61,3264	0,0144	14,5720
61,4067	0,0140	14,1465
61,4613	0,0139	14,5365
61,4934	0,0139	14,1465
61,5737	0,0146	14,6074
61,7342	0,0139	14,1820
61,8017	0,0137	14,6074
61,7824	0,0142	14,1820
61,9365	0,0136	14,6429
62,0297	0,0140	14,1465
62,0971	0,0136	14,5720
62,0586	0,0130	14,1111
62,2448	0,0136	14,6074
62,3347	0,0135	14,2884
62,3925	0,0135	14,4656
62,3861	0,0134	14,2174
62,5563	0,0134	14,6074
62,6109	0,0128	14,2174
62,6751	0,0136	14,5365
62,7747	0,0139	14,2174
62,8389	0,0129	14,4656
62,8774	0,0124	14,3238
63,0026	0,0126	14,5720
63,0572	0,0130	14,1465
63,1311	0,0125	14,5365
63,2017	0,0121	14,2174
63,2531	0,0129	14,6074
63,3077	0,0120	14,2174
63,3912	0,0125	14,5720
63,5036	0,0130	14,2174
63,5453	0,0118	14,5720
63,6417	0,0125	14,1820
63,6898	0,0120	14,6074
63,7091	0,0119	14,1820
63,8119	0,0119	14,5720
63,8953	0,0115	14,1820
63,9788	0,0118	14,5720
64,0045	0,0117	14,3238
64,1265	0,0117	14,6074
64,1458	0,0110	14,1820
64,2229	0,0118	14,6074
64,2197	0,0109	14,2174
64,3674	0,0117	14,5365
64,4316	0,0115	14,2174
64,4990	0,0115	14,5365
64,5376	0,0109	14,1820
64,5825	0,0109	14,6074
64,6757	0,0108	14,2174
64,6917	0,0112	14,5365
64,7816	0,0114	14,1465
64,8555	0,0109	14,6429
64,9486	0,0112	14,2174
64,9968	0,0107	14,5365
65,0353	0,0107	14,1820
65,1220	0,0105	14,6429
65,1702	0,0102	14,1111
65,1798	0,0103	14,5365
65,2954	0,0105	14,2884
65,3660	0,0105	14,5365
65,3917	0,0099	14,2174
65,4560	0,0102	14,5365
65,5138	0,0099	14,2884
65,6165	0,0101	14,6074
65,5362	0,0101	14,0756
65,6647	0,0097	14,6074
65,7450	0,0101	14,1820
65,7963	0,0097	14,4656
65,8156	0,0098	14,1820

28.01.2016	09:01:03
V	I	G
[V]	[A]	[W/m²]
0,2184	0,0406	16,0966
0,5009	0,0404	15,7066
0,7546	0,0405	16,2029
0,9762	0,0404	15,6711
1,2267	0,0406	16,1675
1,4579	0,0405	15,7066
1,6698	0,0401	16,1675
1,9074	0,0402	15,7420
2,1065	0,0399	16,2384
2,2992	0,0400	15,8129
2,5785	0,0399	16,2384
2,8065	0,0399	15,7775
3,0506	0,0404	16,1675
3,2497	0,0405	15,8129
3,4199	0,0399	16,0966
3,5644	0,0405	15,7775
3,7346	0,0396	15,9902
4,0493	0,0396	15,8129
4,4089	0,0399	16,2738
4,6658	0,0400	15,7775
4,8745	0,0393	16,3093
5,1250	0,0396	15,7775
5,3241	0,0393	16,1675
5,5681	0,0394	15,7775
5,7576	0,0394	16,2384
5,9535	0,0391	15,7775
6,2104	0,0393	16,2384
6,4159	0,0393	15,8129
6,6888	0,0394	16,2029
6,8911	0,0393	15,7775
7,0549	0,0390	16,0966
7,3150	0,0396	15,6711
7,4755	0,0388	16,1675
7,7260	0,0384	15,7420
7,9797	0,0385	16,0966
8,1788	0,0385	15,7775
8,3939	0,0385	16,1675
8,6765	0,0386	15,8129
8,8756	0,0384	16,2738
9,0940	0,0385	15,7775
9,3252	0,0384	16,2029
9,5307	0,0386	15,7775
9,7555	0,0381	16,0966
9,9385	0,0388	15,7066
10,0862	0,0381	16,0966
10,3431	0,0391	15,7066
10,4715	0,0377	16,0966
10,6064	0,0384	15,7066
10,7734	0,0383	16,0611
11,1427	0,0385	15,7420
11,4927	0,0383	16,2029
11,7046	0,0381	15,7066
11,9230	0,0375	16,2384
12,1445	0,0378	15,7420
12,3115	0,0377	16,2738
12,5427	0,0373	15,8129
12,7193	0,0375	16,0966
12,9281	0,0378	15,7775
13,1496	0,0373	16,1675
13,3487	0,0375	15,7066
13,5510	0,0372	16,2384
13,7694	0,0375	15,6711
13,9653	0,0367	16,1675
14,2414	0,0372	15,7066
14,3731	0,0374	16,0966
14,6621	0,0375	15,7066
14,8612	0,0374	16,0966
15,0442	0,0369	15,7420
15,2690	0,0373	16,0966
15,4424	0,0369	15,7775
15,6575	0,0363	16,0256
15,8598	0,0373	15,7775
16,1199	0,0374	16,0966
16,3319	0,0368	15,7775
16,5310	0,0366	16,2029
16,6883	0,0366	15,8129
16,8714	0,0367	16,2384
17,0672	0,0366	15,7775
17,1443	0,0364	16,2384
17,2824	0,0366	15,7420
17,4494	0,0364	16,0611
17,8058	0,0363	15,7420
18,1847	0,0367	16,1675
18,3613	0,0363	15,7066
18,5925	0,0357	16,1675
18,7659	0,0363	15,7066
18,9714	0,0358	16,0966
19,1416	0,0363	15,6711
19,3504	0,0363	16,0966
19,5462	0,0358	15,7066
19,7646	0,0358	16,2384
19,9701	0,0358	15,8838
20,1981	0,0354	16,2029
20,3683	0,0362	15,7775
20,5610	0,0353	16,2029
20,7568	0,0356	15,7775
20,9623	0,0354	16,1675
21,1743	0,0353	15,8129
21,3477	0,0348	16,1675
21,5949	0,0353	15,8129
21,7619	0,0346	16,2029
21,9867	0,0357	15,7775
22,1473	0,0350	16,2384
22,3720	0,0354	15,7775
22,5743	0,0348	16,2384
22,7156	0,0354	15,7775
22,9179	0,0354	16,1675
23,0913	0,0351	15,7420
23,2679	0,0354	16,2384
23,4189	0,0351	15,7420
23,5152	0,0346	16,2738
23,7079	0,0350	15,8129
23,8588	0,0350	16,1675
24,2152	0,0354	15,7775
24,5267	0,0353	16,0966
24,6648	0,0347	15,7420
24,8960	0,0348	16,0611
25,0244	0,0343	15,7066
25,2332	0,0341	16,1675
25,4419	0,0346	15,7775
25,6699	0,0339	16,2738
25,8272	0,0341	15,7775
26,0681	0,0346	16,2384
26,2447	0,0341	15,8129
26,4020	0,0340	16,0256
26,5722	0,0340	15,7775
26,8131	0,0346	16,2029
27,0282	0,0336	15,7420
27,1470	0,0340	16,2029
27,3204	0,0332	15,7420
27,5388	0,0340	16,2738
27,7347	0,0343	15,8838
27,9081	0,0335	16,1675
28,1489	0,0341	15,8838
28,3255	0,0335	16,2029
28,5246	0,0335	15,7420
28,7044	0,0336	16,2738
28,8264	0,0335	15,8129
29,0320	0,0329	16,2029
29,1797	0,0337	15,9193
29,3402	0,0331	16,0966
29,5586	0,0336	15,8838
29,6260	0,0331	16,0966
29,7095	0,0336	15,7420
29,8668	0,0336	16,0611
30,2233	0,0331	15,7420
30,5091	0,0325	16,2384
30,7563	0,0330	15,7775
30,9169	0,0325	16,2384
31,0839	0,0331	15,7420
31,2669	0,0326	16,0611
31,4243	0,0326	15,8838
31,6041	0,0328	16,2029
31,8032	0,0329	15,9193
31,9862	0,0328	16,2384
32,2078	0,0325	15,8129
32,3876	0,0329	16,1675
32,5160	0,0328	15,8129
32,6991	0,0323	16,2029
32,8821	0,0323	15,8129
33,0748	0,0323	16,1675
33,2321	0,0320	15,8838
33,4087	0,0320	16,0611
33,6432	0,0326	15,8838
33,8326	0,0325	16,1675
33,9867	0,0323	15,7775
34,1698	0,0318	16,0611
34,2982	0,0316	15,7066
34,4716	0,0318	16,0966
34,6579	0,0316	15,7775
34,8152	0,0314	16,0966
34,9790	0,0314	15,9193
35,1813	0,0321	16,0966
35,3643	0,0319	15,7420
35,3868	0,0319	16,0966
35,4928	0,0318	15,7420
35,6437	0,0313	16,0966
35,9905	0,0320	15,9193
36,2442	0,0314	16,2029
36,4529	0,0314	15,8838
36,6167	0,0312	16,2384
36,8158	0,0313	15,7775
36,9474	0,0310	16,0966
37,0983	0,0309	15,9193
37,3103	0,0310	16,2029
37,5126	0,0314	15,8129
37,6699	0,0312	16,0611
37,8080	0,0308	15,7775
37,9654	0,0303	16,2384
38,1837	0,0310	15,9193
38,3250	0,0309	16,0256
38,4727	0,0303	15,8838
38,6975	0,0304	16,1675
38,8516	0,0301	15,8838
39,0154	0,0310	16,1675
39,1503	0,0303	15,7420
39,3140	0,0308	16,0966
39,5420	0,0303	15,9193
39,7154	0,0304	16,1675
39,8246	0,0298	15,7775
39,9659	0,0302	16,0966
40,1939	0,0307	15,7420
40,2999	0,0299	16,1675
40,5150	0,0303	15,8129
40,6370	0,0301	16,0966
40,7462	0,0298	15,8129
40,8875	0,0298	16,0611
40,9903	0,0299	15,7420
41,0481	0,0296	16,0611
41,3627	0,0304	15,8129
41,6710	0,0301	16,0611
41,8251	0,0293	15,9193
42,0114	0,0296	16,2029
42,2041	0,0298	15,7775
42,3486	0,0294	16,1675
42,4706	0,0296	15,7775
42,6408	0,0298	16,1675
42,8463	0,0294	15,8129
43,0261	0,0294	16,1675
43,1674	0,0293	15,8129
43,2926	0,0291	16,1675
43,4757	0,0291	15,8838
43,6234	0,0292	16,0966
43,7775	0,0294	15,7775
43,9573	0,0292	16,2384
44,1275	0,0286	15,9193
44,3042	0,0289	16,0966
44,4133	0,0292	15,8129
44,5578	0,0286	16,1675
44,7955	0,0292	15,8838
44,9335	0,0285	16,2029
45,0620	0,0287	15,7775
45,2450	0,0285	16,1675
45,3574	0,0281	15,7775
45,5180	0,0282	15,9902
45,6882	0,0285	15,7775
45,8391	0,0280	16,2029
46,0028	0,0286	15,7775
46,0350	0,0283	16,0966
46,1666	0,0282	15,7775
46,2983	0,0277	16,2384
46,4107	0,0285	15,8129
46,5937	0,0283	16,0611
46,8666	0,0285	15,8838
47,1043	0,0276	16,2029
47,2488	0,0282	15,7420
47,3933	0,0283	16,0611
47,5538	0,0277	15,9193
47,7112	0,0277	16,2029
47,8589	0,0277	15,7775
48,0162	0,0275	16,0966
48,1350	0,0276	15,7420
48,2828	0,0274	16,2029
48,4465	0,0274	15,9193
48,6553	0,0274	16,1675
48,7387	0,0272	15,7775
48,9475	0,0277	16,0966
49,0759	0,0269	15,7775
49,1947	0,0271	16,0966
49,4067	0,0274	15,9193
49,5191	0,0269	16,0256
49,6828	0,0267	15,9193
49,8530	0,0266	16,0966
49,9429	0,0266	15,8129
50,0971	0,0265	16,2029
50,2640	0,0267	15,7775
50,3700	0,0265	16,0256
50,5274	0,0266	15,9193
50,6590	0,0265	16,0256
50,7939	0,0261	15,9193
50,9641	0,0266	16,0611
51,0443	0,0263	15,8129
51,1728	0,0264	16,0966
51,2820	0,0263	15,7775
51,2210	0,0261	15,9902
51,5581	0,0266	15,9547
51,8279	0,0263	16,0966
52,0013	0,0264	15,9547
52,1875	0,0258	16,1675
52,2678	0,0256	15,8838
52,4605	0,0258	16,2384
52,5664	0,0255	15,7775
52,6917	0,0254	16,0966
52,8201	0,0254	15,8838
52,9839	0,0253	16,0966
53,1091	0,0253	15,9547
53,3114	0,0254	16,0966
53,4431	0,0253	15,9547
53,5651	0,0258	15,9902
53,7128	0,0253	15,8129
53,8156	0,0250	16,0611
53,9986	0,0248	15,8838
54,1559	0,0253	16,2029
54,2170	0,0247	15,7775
54,3743	0,0245	16,2029
54,5509	0,0245	15,9547
54,6826	0,0245	16,2029
54,8078	0,0248	15,8129
54,9395	0,0247	16,0611
55,0679	0,0249	15,8129
55,1707	0,0245	16,0256
55,3376	0,0245	15,7775
55,4597	0,0243	16,0966
55,5881	0,0240	15,9902
55,6684	0,0238	16,0966
55,7615	0,0243	15,8129
55,9028	0,0243	16,0256
55,9285	0,0250	15,8129
56,0794	0,0240	16,0966
56,2753	0,0245	15,8129
56,5354	0,0238	16,0966
56,6382	0,0236	15,9193
56,7730	0,0238	16,0611
56,9464	0,0232	15,9193
57,0524	0,0236	16,2384
57,1712	0,0228	15,8129
57,3221	0,0232	16,1675
57,4313	0,0231	15,9547
57,6079	0,0232	16,2029
57,7107	0,0229	15,9547
57,8488	0,0237	16,0966
57,9997	0,0231	15,9193
58,0960	0,0232	16,0966
58,2116	0,0231	15,7775
58,3176	0,0227	16,0611
58,5006	0,0224	15,9547
58,6098	0,0228	16,1675
58,7190	0,0226	15,8838
58,8217	0,0226	15,9902
58,9662	0,0226	15,9547
59,0915	0,0229	16,1675
59,2328	0,0222	15,8838
59,3002	0,0221	16,0611
59,4254	0,0217	15,9902
59,5442	0,0220	15,9902
59,6309	0,0220	15,9902
59,8076	0,0213	16,0611
59,9103	0,0220	15,8838
59,9617	0,0220	16,0611
60,0323	0,0221	15,9193
60,0998	0,0218	16,1675
60,1865	0,0218	15,7775
60,3085	0,0211	16,0966
60,6200	0,0217	15,9902
60,7805	0,0216	16,0966
60,8704	0,0207	15,9547
61,0342	0,0211	16,0966
61,1241	0,0209	15,8838
61,1948	0,0212	16,2029
61,3232	0,0204	15,9902
61,4741	0,0206	16,0256
61,5512	0,0211	15,8838
61,6861	0,0209	16,2738
61,7920	0,0201	15,9193
61,8980	0,0206	16,0966
61,9783	0,0201	15,8129
62,0843	0,0197	16,0611
62,2641	0,0199	15,9193
62,3122	0,0197	16,0611
62,4503	0,0197	15,9193
62,5370	0,0195	16,0611
62,6880	0,0195	15,9193
62,7490	0,0197	15,9902
62,8549	0,0193	15,9547
62,9962	0,0195	16,0611
63,0669	0,0189	15,8129
63,1793	0,0191	16,0966
63,2981	0,0189	15,9547
63,4169	0,0189	16,0966
63,4683	0,0184	15,8129
63,5261	0,0183	16,2029
63,6256	0,0182	15,9902
63,6352	0,0183	16,0611
63,7380	0,0185	15,9902
63,7284	0,0183	16,0966
63,8857	0,0180	15,8838
64,0687	0,0185	16,0611
64,2935	0,0182	16,0256
64,4444	0,0179	16,1675
64,5504	0,0177	15,9193
64,5889	0,0174	16,0966
64,7078	0,0174	15,9547
64,8234	0,0180	16,0256
64,8780	0,0167	15,9193
65,0257	0,0173	16,0966
65,0899	0,0172	15,8838
65,2087	0,0169	16,1675
65,2954	0,0173	15,9547
65,3789	0,0167	16,0256
65,4495	0,0162	15,9547
65,5330	0,0162	16,2384
65,6518	0,0171	15,8129
65,7032	0,0158	16,0966
65,8445	0,0162	15,9547
65,9087	0,0156	16,0611
65,9633	0,0158	15,9193
66,1271	0,0158	16,0966
66,1753	0,0158	15,8838
66,2106	0,0148	16,0966
66,3165	0,0151	15,9902
66,4450	0,0151	16,0611
66,5156	0,0155	15,9193
66,5542	0,0145	16,0611
66,6055	0,0144	15,9547
66,7147	0,0146	16,0966
66,8014	0,0148	15,9547
66,7982	0,0145	16,0611
66,8849	0,0145	15,9902
66,8592	0,0140	16,0966
66,8978	0,0142	15,8838
67,0583	0,0139	16,1675
67,3313	0,0140	15,9902
67,3698	0,0136	16,0966
67,4661	0,0134	16,0256
67,5657	0,0135	16,0256
67,6460	0,0130	15,9193
67,6845	0,0130	15,9902
67,7840	0,0134	15,8838
67,8097	0,0128	16,0966
67,8932	0,0129	15,9902
68,0088	0,0126	16,0966
68,0024	0,0125	15,8129
68,1084	0,0125	16,0611
68,1501	0,0118	15,8838
68,2079	0,0125	16,0611
68,3010	0,0120	16,0256
68,3556	0,0115	16,0611
68,4359	0,0117	16,0256
68,5611	0,0117	16,0256
68,5997	0,0114	15,9902
68,6478	0,0112	15,9902
68,7024	0,0110	15,8838
68,7281	0,0114	16,0611
68,7827	0,0112	15,9547
68,9015	0,0114	16,0611
68,9240	0,0108	15,9193
68,9722	0,0105	16,0611
69,0428	0,0103	15,9547
69,0589	0,0105	16,0966
69,1713	0,0105	15,9193
69,2034	0,0103	15,9902
69,2419	0,0099	15,9193
69,1102	0,0102	15,9547
69,3254	0,0105	15,9547
69,3029	0,0107	15,9902
69,5245	0,0099	16,0611
69,6015	0,0096	16,2029
69,5855	0,0093	15,9547
69,6690	0,0096	15,9902

28.01.2016	09:06:03
V	I	G
[V]	[A]	[W/m²]
0,2729	0,0467	18,1884
0,4688	0,0469	18,5784
0,8413	0,0466	18,1529
1,0661	0,0466	18,5075
1,3936	0,0467	18,2239
1,6570	0,0466	18,5075
1,9010	0,0465	18,2239
2,1868	0,0461	18,5784
2,4533	0,0465	18,0820
2,7198	0,0460	18,6493
2,8900	0,0461	18,0820
3,2079	0,0464	18,6139
3,5098	0,0460	18,1884
3,7570	0,0467	18,4720
4,0236	0,0459	18,1529
4,3094	0,0460	18,6493
4,5534	0,0459	18,1529
4,7942	0,0459	18,5784
4,9901	0,0458	18,1884
5,2470	0,0456	18,6493
5,5521	0,0451	18,2948
5,7768	0,0456	18,6139
6,0787	0,0460	18,1884
6,3516	0,0456	18,6139
6,6117	0,0455	18,2239
6,8462	0,0451	18,5784
7,1287	0,0455	18,1529
7,3407	0,0449	18,5784
7,5012	0,0450	18,1884
7,8320	0,0450	18,6493
8,1178	0,0446	18,1175
8,3843	0,0448	18,6139
8,6540	0,0449	18,2239
8,8852	0,0442	18,6848
9,1518	0,0445	18,2239
9,4054	0,0445	18,6493
9,6559	0,0446	18,1529
9,8743	0,0445	18,6493
10,0637	0,0442	18,1175
10,3816	0,0445	18,5784
10,6096	0,0443	18,2239
10,9018	0,0440	18,6493
11,1523	0,0438	18,2239
11,3032	0,0443	18,5784
11,5954	0,0440	18,1884
11,7721	0,0442	18,5075
12,1028	0,0440	18,2239
12,3051	0,0439	18,5075
12,5524	0,0437	18,1884
12,8349	0,0437	18,5784
13,0886	0,0439	18,2239
13,3487	0,0433	18,7202
13,6185	0,0438	18,2948
13,8336	0,0435	18,6848
14,0809	0,0438	18,1884
14,3185	0,0435	18,5784
14,5401	0,0435	18,1884
14,8130	0,0435	18,6848
15,0506	0,0432	18,2239
15,3172	0,0432	18,6139
15,5548	0,0431	18,2948
15,7378	0,0433	18,6139
16,0043	0,0429	18,2948
16,2612	0,0432	18,6848
16,4507	0,0429	18,1884
16,6530	0,0427	18,6848
16,9677	0,0431	18,1884
17,2053	0,0427	18,6493
17,4301	0,0431	18,1884
17,6773	0,0427	18,5784
17,8893	0,0427	18,1529
18,1622	0,0422	18,5784
18,3164	0,0420	18,2239
18,5668	0,0424	18,5784
18,7306	0,0423	18,1884
19,0903	0,0423	18,6493
19,3343	0,0421	18,2239
19,5623	0,0421	18,6139
19,7742	0,0427	18,0820
19,9926	0,0417	18,6848
20,1949	0,0420	18,1884
20,4710	0,0413	18,6493
20,7119	0,0417	18,2948
20,8756	0,0418	18,6848
21,1743	0,0418	18,1884
21,4023	0,0413	18,6493
21,5949	0,0413	18,1175
21,8807	0,0415	18,6848
22,0670	0,0415	18,1175
22,3207	0,0410	18,6493
22,5326	0,0413	18,3302
22,7863	0,0413	18,6493
22,8569	0,0410	18,2948
23,2487	0,0410	18,6493
23,4542	0,0411	18,1175
23,6886	0,0405	18,6493
23,9166	0,0412	18,1884
24,1317	0,0410	18,6848
24,3822	0,0408	18,1884
24,5942	0,0410	18,6493
24,7740	0,0404	18,1175
24,9442	0,0405	18,5075
25,1818	0,0406	18,1529
25,4676	0,0402	18,5784
25,7148	0,0401	18,1884
25,9139	0,0404	18,6493
26,1323	0,0406	18,1175
26,3763	0,0400	18,6848
26,5433	0,0396	18,1529
26,8323	0,0402	18,6848
26,9608	0,0400	18,1884
27,2498	0,0402	18,6493
27,4681	0,0399	18,1529
27,7058	0,0400	18,6493
27,8888	0,0399	18,1175
28,1360	0,0396	18,6493
28,3255	0,0395	18,1175
28,5535	0,0395	18,6139
28,7783	0,0393	18,1529
28,8618	0,0394	18,6139
29,1379	0,0393	18,1884
29,4237	0,0390	18,6493
29,6260	0,0391	18,1529
29,8701	0,0391	18,6493
30,0692	0,0391	18,2239
30,2875	0,0388	18,6493
30,4930	0,0394	18,2948
30,7563	0,0391	18,6493
30,8816	0,0391	18,1529
31,1738	0,0390	18,6493
31,3632	0,0385	18,0820
31,5591	0,0383	18,6493
31,8224	0,0385	18,2239
32,0151	0,0386	18,5075
32,1821	0,0383	18,1884
32,4582	0,0383	18,6848
32,6284	0,0383	18,1175
32,7986	0,0385	18,6493
33,0106	0,0383	18,1175
33,2803	0,0385	18,7557
33,4826	0,0380	18,2239
33,7202	0,0381	18,6493
33,9129	0,0383	18,1529
34,0317	0,0381	18,5784
34,3175	0,0380	18,1884
34,5166	0,0383	18,5784
34,7285	0,0384	18,2239
34,8634	0,0378	18,6848
35,1299	0,0377	18,0466
35,3772	0,0375	18,6848
35,5666	0,0380	18,1175
35,7593	0,0377	18,6139
35,9520	0,0374	18,1175
36,1639	0,0372	18,6139
36,3469	0,0374	18,1529
36,5332	0,0374	18,6493
36,7002	0,0373	18,0820
36,9699	0,0378	18,6139
37,1722	0,0368	18,1175
37,4002	0,0372	18,5075
37,5704	0,0368	18,1529
37,8273	0,0367	18,6493
37,9910	0,0367	18,0820
38,2126	0,0362	18,7202
38,4310	0,0369	18,1884
38,6012	0,0366	18,7202
38,8195	0,0363	18,1175
38,9897	0,0366	18,6139
39,1920	0,0367	18,1175
39,3847	0,0363	18,6848
39,6191	0,0362	18,2239
39,7508	0,0358	18,6139
39,9948	0,0357	18,0820
40,2196	0,0359	18,7202
40,3352	0,0356	18,0820
40,5953	0,0357	18,6139
40,7815	0,0354	18,1884
40,9678	0,0357	18,6493
41,2054	0,0354	18,2948
41,3916	0,0357	18,6848
41,5939	0,0354	18,1884
41,7866	0,0363	18,6493
41,9440	0,0357	18,1175
42,0853	0,0353	18,6848
42,3903	0,0353	18,1529
42,5862	0,0356	18,6848
42,7500	0,0353	18,2239
42,9073	0,0350	18,5784
43,0647	0,0350	18,1529
43,2991	0,0346	18,6493
43,4404	0,0351	18,1884
43,6940	0,0347	18,6848
43,8000	0,0354	18,0466
44,0697	0,0347	18,6493
44,2367	0,0354	18,1175
44,4358	0,0346	18,6493
44,6092	0,0343	18,1884
44,7955	0,0345	18,6848
45,0395	0,0347	18,0820
45,1936	0,0341	18,6493
45,3414	0,0345	18,1529
45,5051	0,0341	18,6848
45,7492	0,0337	18,2239
45,8840	0,0343	18,7202
46,1120	0,0339	18,1884
46,3497	0,0340	18,6848
46,4909	0,0340	18,0820
46,6772	0,0337	18,6139
46,8602	0,0337	18,1884
47,0882	0,0336	18,6848
47,1621	0,0335	18,2948
47,4414	0,0340	18,6848
47,6084	0,0335	18,1175
47,7818	0,0337	18,6139
47,9649	0,0330	18,1529
48,1447	0,0330	18,6848
48,3502	0,0335	18,1884
48,5461	0,0330	18,7202
48,7098	0,0332	18,1175
48,8254	0,0339	18,6493
48,9956	0,0329	18,0820
49,2525	0,0331	18,6848
49,4163	0,0330	18,1529
49,5351	0,0325	18,6139
49,7599	0,0321	18,1884
49,9558	0,0325	18,6493
50,0906	0,0328	18,1884
50,3186	0,0329	18,6139
50,3796	0,0323	18,1529
50,5498	0,0323	18,6493
50,7971	0,0316	18,1529
50,9994	0,0320	18,7202
51,1888	0,0325	18,0820
51,3012	0,0320	18,6493
51,5100	0,0320	18,0820
51,6834	0,0318	18,7202
51,8664	0,0313	18,1884
51,9981	0,0325	18,6848
52,2004	0,0319	18,0820
52,3416	0,0313	18,6493
52,4797	0,0312	18,1175
52,7719	0,0316	18,6848
52,9100	0,0313	18,1175
53,0834	0,0312	18,6848
53,2215	0,0308	18,1529
53,4238	0,0312	18,6848
53,5426	0,0314	18,2239
53,7867	0,0309	18,6493
53,9215	0,0312	18,0466
54,0821	0,0299	18,6848
54,2459	0,0307	18,1175
54,4546	0,0304	18,6848
54,5991	0,0308	18,0820
54,7339	0,0303	18,6139
54,8881	0,0301	18,1529
55,0615	0,0304	18,6493
55,2156	0,0301	18,0466
55,3922	0,0298	18,6493
55,5560	0,0296	18,1529
55,7519	0,0296	18,7557
55,8867	0,0303	17,9757
56,0569	0,0294	18,5784
56,2496	0,0299	18,2239
56,4005	0,0292	18,6493
56,4776	0,0296	18,1175
56,6478	0,0294	18,6139
56,8533	0,0289	18,0820
57,0460	0,0287	18,6848
57,1841	0,0292	18,1175
57,3286	0,0287	18,6848
57,4666	0,0286	18,0466
57,6529	0,0287	18,7202
57,8231	0,0283	18,1884
57,9194	0,0291	18,6848
58,0511	0,0287	18,1175
58,2694	0,0283	18,6493
58,4332	0,0287	18,2239
58,5809	0,0280	18,5784
58,7029	0,0282	18,2239
58,9213	0,0280	18,6848
59,0176	0,0283	18,1175
59,1878	0,0277	18,6139
59,3227	0,0275	18,0466
59,4351	0,0282	18,6848
59,6309	0,0272	18,0466
59,7722	0,0272	18,7202
59,9103	0,0271	18,0820
60,0452	0,0272	18,7911
60,2218	0,0269	18,1529
60,3695	0,0272	18,6139
60,4658	0,0264	18,1175
60,6585	0,0267	18,6139
60,7484	0,0265	18,0466
60,9347	0,0263	18,6848
61,1209	0,0263	18,1884
61,2590	0,0266	18,7202
61,3746	0,0259	18,0820
61,5095	0,0253	18,6848
61,6732	0,0258	18,0466
61,8306	0,0258	18,7557
61,9462	0,0258	18,1884
62,0008	0,0263	18,6139
62,2320	0,0249	18,0466
62,3668	0,0255	18,7202
62,5113	0,0254	18,1529
62,6623	0,0254	18,7557
62,7490	0,0256	18,0466
62,8967	0,0250	18,6493
62,9513	0,0249	18,1529
63,1985	0,0244	18,7911
63,2595	0,0243	18,0466
63,4233	0,0240	18,6848
63,6063	0,0239	18,1529
63,7348	0,0238	18,7202
63,7541	0,0240	18,1175
63,9724	0,0243	18,6848
64,0527	0,0232	18,1175
64,2614	0,0231	18,7202
64,3224	0,0232	18,2948
64,3963	0,0237	18,6848
64,5889	0,0231	17,9757
64,7046	0,0229	18,6493
64,8458	0,0231	18,0466
64,8972	0,0228	18,6139
65,0674	0,0222	18,0466
65,1541	0,0224	18,6493
65,3147	0,0221	18,1529
65,4399	0,0218	18,7202
65,5009	0,0221	18,1884
65,7289	0,0217	18,6848
65,7739	0,0213	17,9757
65,9184	0,0210	18,7557
66,0436	0,0212	18,1175
66,1849	0,0212	18,7557
66,2780	0,0211	18,1175
66,3808	0,0202	18,6493
66,4578	0,0206	18,1529
66,5253	0,0207	18,6848
66,7051	0,0201	18,1529
66,7950	0,0195	18,6848
66,9524	0,0201	18,1529
67,0615	0,0194	18,6493
67,1129	0,0194	18,1175
67,2349	0,0193	18,7911
67,3248	0,0185	18,0466
67,4437	0,0193	18,7202
67,4790	0,0189	18,0820
67,6813	0,0189	18,7202
67,7648	0,0183	18,0466
67,8547	0,0182	18,6848
67,9414	0,0179	18,1175
68,0795	0,0180	18,7202
68,2015	0,0177	18,1529
68,2753	0,0174	18,7202
68,3396	0,0172	18,1884
68,4520	0,0174	18,7202
68,5354	0,0173	18,0466
68,5868	0,0163	18,6493
68,6896	0,0164	18,1529
68,7538	0,0164	18,7202
68,9047	0,0167	18,1529
69,0043	0,0156	18,7202
69,0621	0,0155	18,1175
69,1391	0,0155	18,7202
69,1745	0,0155	18,1175
69,3190	0,0151	18,7911
69,4442	0,0155	18,1175
69,4859	0,0146	18,7202
69,5309	0,0148	17,9402
69,6754	0,0144	18,7911
69,7621	0,0140	18,1175
69,8231	0,0144	18,6848
69,8745	0,0147	18,1884
69,9291	0,0135	18,6848
69,9997	0,0136	18,0820
70,1185	0,0132	18,7202
70,1474	0,0134	18,0466
70,1731	0,0129	18,6848
70,3401	0,0130	18,1529
70,4204	0,0130	18,7202
70,4300	0,0121	18,0466
70,4910	0,0128	18,8620
70,5553	0,0120	17,9402
70,6612	0,0119	18,7911
70,7447	0,0118	18,1175
70,7768	0,0114	18,6848
70,8443	0,0114	18,2239
70,9438	0,0109	18,7202
70,9438	0,0108	18,1175
71,0594	0,0103	18,7557
71,0851	0,0107	18,0466
71,1397	0,0108	18,7202
71,0979	0,0103	18,0466
71,2585	0,0099	18,6848
71,2457	0,0101	18,1529
71,4030	0,0098	18,7202
71,4191	0,0102	18,1175
71,4833	0,0087	18,7202
71,5025	0,0092	18,1529
71,5764	0,0092	18,7202

28.01.2016	09:11:03
V	I	G
[V]	[A]	[W/m²]
0,2954	0,0538	21,3793
0,6230	0,0537	21,1312
0,6776	0,0537	21,3439
1,2042	0,0532	21,1312
1,5606	0,0531	21,3793
1,8496	0,0534	21,1312
2,1772	0,0538	21,1666
2,3473	0,0535	21,1666
2,7809	0,0532	21,2730
3,0923	0,0535	21,1666
3,3524	0,0534	21,3439
3,6511	0,0534	21,1666
3,9947	0,0532	21,3439
4,2130	0,0530	21,1666
4,5309	0,0525	21,3793
4,8199	0,0525	21,0603
5,1378	0,0530	21,4148
5,4654	0,0527	21,2021
5,6548	0,0529	21,3793
6,0273	0,0525	21,0957
6,3356	0,0527	21,3439
6,6021	0,0524	21,0957
6,8879	0,0525	21,3084
7,1930	0,0520	21,1666
7,4820	0,0520	21,2021
7,7870	0,0521	21,1666
8,1049	0,0520	21,2021
8,3971	0,0519	21,1312
8,6797	0,0520	21,4148
8,6669	0,0520	21,1666
9,2224	0,0515	21,3439
9,5114	0,0519	21,2021
9,7715	0,0512	21,4503
10,1376	0,0514	21,0957
10,3592	0,0519	21,3439
10,6899	0,0513	21,1312
10,9211	0,0514	21,3084
11,2775	0,0515	21,1312
11,5794	0,0513	21,4503
11,7913	0,0510	21,1312
12,0161	0,0514	21,5212
12,4207	0,0509	21,2021
12,6680	0,0507	21,3439
12,9281	0,0504	21,1666
13,2235	0,0507	21,3439
13,1817	0,0510	21,2021
13,8047	0,0505	21,3793
14,0873	0,0504	21,2021
14,3153	0,0505	21,5212
14,5979	0,0500	21,0603
14,9190	0,0505	21,3439
15,2048	0,0502	21,0957
15,4617	0,0504	21,4148
15,7571	0,0500	21,0603
16,0268	0,0502	21,4148
16,2869	0,0496	21,1666
16,4700	0,0503	21,3439
16,8938	0,0493	21,2021
17,1507	0,0493	21,3439
17,4172	0,0493	21,1312
17,6613	0,0504	21,3439
17,9182	0,0498	21,2021
18,1879	0,0494	21,4148
18,5315	0,0496	21,1312
18,8012	0,0493	21,4148
19,0453	0,0493	21,2021
19,3022	0,0492	21,4148
19,4820	0,0491	21,2021
19,8288	0,0491	21,2021
20,0600	0,0487	21,1312
20,3683	0,0485	21,2730
20,5995	0,0483	21,1666
20,7376	0,0482	21,3084
21,2000	0,0485	21,2021
21,4408	0,0483	21,4148
21,7105	0,0487	21,3084
21,9353	0,0475	21,3793
22,2468	0,0485	21,2730
22,5101	0,0480	21,3439
22,7574	0,0476	21,2021
23,0624	0,0477	21,4503
23,3225	0,0475	21,2021
23,6083	0,0480	21,3439
23,6308	0,0476	21,2021
24,1093	0,0475	21,3439
24,3726	0,0475	21,2021
24,6423	0,0473	21,3793
24,9024	0,0475	21,2021
25,0694	0,0475	21,5566
25,4323	0,0475	21,1666
25,6699	0,0472	21,4148
25,9428	0,0472	21,1666
26,1516	0,0470	21,4503
26,4052	0,0467	21,1666
26,4887	0,0467	21,4148
26,9800	0,0473	21,1312
27,2305	0,0472	21,3793
27,4617	0,0467	21,2021
27,7282	0,0466	21,4503
27,8278	0,0465	21,0957
28,2067	0,0465	21,4148
28,4411	0,0467	21,1312
28,7301	0,0464	21,3084
29,0352	0,0460	21,2730
29,2439	0,0460	21,4148
29,5136	0,0465	21,2021
29,7320	0,0455	21,4503
30,0146	0,0460	21,2021
30,2233	0,0458	21,4148
30,5316	0,0460	21,2021
30,6472	0,0460	21,4503
31,0036	0,0456	21,1312
31,2509	0,0454	21,3439
31,5206	0,0460	21,1666
31,7743	0,0455	21,2021
31,8995	0,0459	21,3084
32,2495	0,0458	21,3793
32,4615	0,0448	21,2730
32,7151	0,0455	21,2730
32,9720	0,0446	21,1312
33,2321	0,0450	21,3084
33,3959	0,0443	21,0957
33,7555	0,0446	21,3439
33,9867	0,0449	21,1666
34,1569	0,0448	21,4503
34,4620	0,0442	21,2021
34,5519	0,0448	21,2021
34,9597	0,0445	21,1666
35,2327	0,0443	21,3084
35,4414	0,0446	21,2730
35,6983	0,0442	21,3084
35,9231	0,0440	21,2021
36,1286	0,0442	21,3439
36,3598	0,0435	21,0957
36,6648	0,0438	21,2730
36,8993	0,0433	21,2021
37,1369	0,0442	21,3084
37,1915	0,0437	21,0957
37,5961	0,0438	21,3793
37,8016	0,0439	21,1312
38,0488	0,0435	21,2730
38,2833	0,0437	21,1666
38,4374	0,0437	21,3793
38,7360	0,0429	21,1666
38,9608	0,0429	21,4503
39,2241	0,0432	21,1312
39,4585	0,0431	21,4148
39,7219	0,0428	21,1666
39,9402	0,0431	21,3084
40,2067	0,0432	21,1666
40,4379	0,0428	21,4148
40,6563	0,0429	21,1666
40,8843	0,0428	21,3439
40,9100	0,0427	21,1312
41,3371	0,0427	21,2021
41,5490	0,0422	21,1312
41,7673	0,0424	21,3084
42,0435	0,0423	21,2730
42,2394	0,0422	21,2730
42,5059	0,0420	21,2730
42,7275	0,0415	21,3793
42,9458	0,0415	21,2730
43,1867	0,0417	21,3793
43,4275	0,0418	21,2021
43,4660	0,0417	21,3439
43,8835	0,0417	21,1666
44,0922	0,0412	21,3439
44,3266	0,0411	21,2730
44,5000	0,0412	21,3793
44,5867	0,0413	21,2730
44,9207	0,0412	21,3439
45,1294	0,0406	21,2021
45,3606	0,0406	21,3084
45,5822	0,0410	21,1666
45,8455	0,0410	21,3793
46,0317	0,0405	21,1312
46,2533	0,0405	21,3439
46,4974	0,0405	21,0957
46,6932	0,0400	21,3793
46,9052	0,0404	21,0957
46,9855	0,0408	21,3084
47,3740	0,0401	21,1666
47,6245	0,0404	21,3084
47,8332	0,0402	21,1666
48,0387	0,0402	21,2730
48,2474	0,0399	21,2021
48,4690	0,0396	21,3084
48,7002	0,0399	21,2021
48,8961	0,0400	21,3439
49,1209	0,0393	21,2730
49,2750	0,0390	21,3793
49,4484	0,0394	21,1312
49,7214	0,0391	21,3793
49,9750	0,0391	21,1312
50,1549	0,0388	21,3084
50,3893	0,0393	21,1666
50,4310	0,0393	21,1312
50,8035	0,0390	21,2021
50,9994	0,0386	21,2021
51,1953	0,0385	21,3084
51,4233	0,0385	21,2021
51,6288	0,0378	21,2730
51,7508	0,0385	21,3084
52,0077	0,0381	21,2021
52,2549	0,0381	21,3439
52,4508	0,0378	21,2021
52,6756	0,0381	21,3084
52,7880	0,0380	21,1312
53,0417	0,0378	21,3084
53,2729	0,0374	21,1312
53,4688	0,0374	21,3439
53,6582	0,0378	21,1312
53,7835	0,0377	21,4503
54,0853	0,0372	21,2021
54,2940	0,0372	21,4148
54,5156	0,0369	21,2021
54,6794	0,0368	21,3793
54,9041	0,0367	21,2730
54,9009	0,0367	21,3793
55,2509	0,0363	21,2021
55,4757	0,0363	21,2730
55,6844	0,0363	21,2730
55,8867	0,0362	21,3084
55,9606	0,0363	21,1666
56,2047	0,0362	21,2730
56,4615	0,0358	21,1666
56,6317	0,0359	21,3084
56,8661	0,0357	21,2730
57,0781	0,0358	21,5212
57,1744	0,0356	21,1312
57,4120	0,0359	21,3084
57,6368	0,0356	21,1312
57,8520	0,0353	21,3793
58,0093	0,0351	21,1666
57,8038	0,0350	21,3439
58,3882	0,0350	21,3084
58,5841	0,0348	21,3793
58,7768	0,0346	21,2021
58,8506	0,0345	21,3793
58,9887	0,0347	21,3084
59,3066	0,0341	21,4148
59,4672	0,0341	21,2021
59,6566	0,0337	21,3439
59,8268	0,0340	21,2021
60,0131	0,0336	21,3084
60,0998	0,0332	21,2730
60,3791	0,0331	21,3084
60,5654	0,0329	21,3084
60,7420	0,0330	21,3439
60,9058	0,0330	21,3084
60,8415	0,0329	21,3084
61,3007	0,0330	21,2021
61,4870	0,0332	21,4503
61,6797	0,0326	21,2021
61,8434	0,0325	21,3793
61,9976	0,0323	21,2730
62,1517	0,0323	21,3793
62,3026	0,0318	21,2021
62,4664	0,0316	21,3793
62,6591	0,0314	21,1666
62,8453	0,0316	21,3084
62,9705	0,0314	21,2021
63,1632	0,0312	21,3439
63,3687	0,0310	21,3084
63,4779	0,0303	21,3439
63,6577	0,0309	21,3084
63,5357	0,0304	21,2730
63,9724	0,0294	21,3084
64,1265	0,0301	21,2730
64,2967	0,0292	21,2021
64,4573	0,0294	21,3439
64,6532	0,0293	21,1666
64,7078	0,0293	21,3793
64,9261	0,0292	21,1312
65,0642	0,0286	21,4503
65,2440	0,0287	21,2021
65,3982	0,0285	21,4148
65,1798	0,0283	21,2730
65,7514	0,0277	21,3439
65,8927	0,0275	21,2730
66,0243	0,0282	21,4148
66,1528	0,0274	21,1312
66,3262	0,0280	21,4148
66,4578	0,0267	21,2730
66,6280	0,0269	21,3439
66,7340	0,0269	21,2021
66,8978	0,0264	21,3084
67,0423	0,0265	21,2730
66,9780	0,0256	21,1666
67,2574	0,0256	21,2021
67,4340	0,0250	21,3439
67,5657	0,0256	21,2021
67,7294	0,0248	21,4148
67,6042	0,0250	21,3084
67,9382	0,0243	21,3084
68,0795	0,0243	21,3084
68,2175	0,0239	21,3439
68,3653	0,0234	21,2021
68,4937	0,0238	21,3084
68,5162	0,0228	21,1666
68,7088	0,0228	21,2730
68,8533	0,0229	21,3793
68,9818	0,0227	21,3084
69,1231	0,0224	21,3084
69,0813	0,0222	21,1666
69,3350	0,0217	21,2021
69,4314	0,0216	21,3084
69,5534	0,0211	21,2021
69,6433	0,0211	21,2021
69,7974	0,0209	21,2730
69,8552	0,0204	21,2021
69,9965	0,0204	21,2021
70,1153	0,0197	21,2021
70,1988	0,0195	21,2730
70,3208	0,0197	21,1312
70,3080	0,0188	21,1666
70,4910	0,0185	21,3084
70,5938	0,0184	21,2730
70,6805	0,0184	21,3084
70,7736	0,0179	21,1666
70,7094	0,0174	21,2730
70,9759	0,0172	21,1666
71,0626	0,0171	21,1666
71,1525	0,0172	21,1666
71,2424	0,0171	21,3084
71,3580	0,0161	21,2021
71,3934	0,0158	21,2730
71,5507	0,0158	21,2021
71,5732	0,0152	21,4148
71,6374	0,0151	21,3084
71,7337	0,0145	21,3439
71,7241	0,0145	21,3084
71,8879	0,0144	21,2730
71,9842	0,0140	21,2730
72,0356	0,0142	21,3439
72,1672	0,0134	21,2021
72,0902	0,0135	21,3439
72,2925	0,0128	21,2021
72,3663	0,0129	21,2730
72,4370	0,0125	21,2730
72,4980	0,0124	21,3439
72,5783	0,0118	21,2021
72,4113	0,0118	21,2730
72,6778	0,0115	21,2730
72,7453	0,0108	21,3439
72,8191	0,0109	21,3084
72,8609	0,0108	21,3084
72,8159	0,0107	21,1666
72,9476	0,0103	21,2730
72,9989	0,0099	21,1666
73,0632	0,0099	21,2730
73,1274	0,0096	21,1666
73,1499	0,0093	21,3793
73,1788	0,0090	21,1312

28.01.2016	09:16:03
V	I	G
[V]	[A]	[W/m²]
0,3693	0,0622	24,1448
0,7193	0,0617	24,9603
1,0757	0,0617	24,2157
1,4611	0,0621	25,0667
1,8015	0,0622	24,2512
2,1675	0,0616	25,0312
2,4758	0,0617	24,2157
2,8451	0,0616	25,0667
3,1501	0,0621	24,2512
3,5547	0,0610	25,1021
3,8951	0,0617	24,2157
4,2162	0,0613	24,9248
4,5502	0,0615	24,2867
4,7878	0,0615	25,0312
5,2181	0,0610	24,2512
5,5778	0,0611	25,0312
5,9342	0,0606	24,3221
6,2971	0,0610	24,9603
6,5636	0,0606	24,2157
6,9585	0,0605	25,0312
7,2765	0,0605	24,1094
7,6040	0,0604	25,0312
7,9508	0,0602	24,1094
8,2751	0,0605	25,0312
8,6059	0,0602	24,1448
8,9334	0,0596	24,9603
9,2609	0,0595	24,2512
9,6270	0,0597	25,0667
9,9802	0,0599	24,3221
10,2596	0,0596	24,9603
10,6000	0,0596	24,2512
10,9821	0,0596	24,9603
11,2551	0,0591	24,2157
11,5890	0,0596	24,9603
11,9005	0,0589	24,2867
12,2858	0,0592	25,1021
12,6134	0,0588	24,2867
12,8671	0,0591	24,9248
13,2139	0,0585	24,2157
13,5382	0,0585	25,0312
13,8818	0,0588	24,2512
14,2029	0,0583	25,0312
14,4887	0,0585	24,1448
14,8483	0,0583	24,9603
15,1823	0,0584	24,1448
15,5227	0,0580	25,0312
15,8342	0,0583	24,2867
16,1456	0,0577	25,0667
16,4635	0,0578	24,2512
16,7782	0,0580	25,1376
17,1154	0,0570	24,2512
17,3659	0,0580	25,1021
17,7769	0,0577	24,1448
18,0306	0,0575	25,0312
18,3966	0,0575	24,1094
18,7274	0,0577	25,1021
18,9618	0,0573	24,2157
19,3247	0,0573	25,0667
19,6233	0,0569	24,2867
19,9316	0,0568	24,9603
20,2174	0,0565	24,2512
20,4678	0,0567	24,9248
20,9045	0,0568	24,2157
21,1968	0,0569	24,9603
21,5115	0,0565	24,0739
21,6881	0,0559	25,0667
22,1151	0,0565	24,1094
22,4234	0,0561	25,1021
22,7028	0,0558	24,1448
23,0624	0,0557	25,1021
23,3450	0,0559	24,2512
23,6726	0,0562	24,9248
23,9680	0,0551	24,1448
24,2538	0,0557	24,9603
24,5781	0,0557	24,1448
24,8639	0,0558	25,0312
25,1754	0,0556	24,2157
25,5190	0,0553	24,9603
25,8176	0,0551	24,3576
26,0841	0,0552	24,9603
26,3571	0,0552	24,2867
26,7007	0,0548	24,9248
27,0154	0,0557	24,2512
27,2819	0,0547	24,9603
27,5677	0,0547	24,2512
27,8792	0,0550	25,0667
28,1971	0,0543	24,3221
28,4925	0,0543	25,1021
28,7911	0,0543	24,2867
29,0898	0,0548	25,0667
29,3627	0,0538	24,2157
29,6999	0,0543	24,9603
29,9279	0,0541	24,2157
30,2811	0,0542	25,0312
30,5412	0,0546	24,2867
30,8880	0,0542	25,0667
31,1385	0,0534	24,2512
31,4339	0,0532	24,9603
31,7646	0,0534	24,2512
32,0087	0,0541	25,0667
32,3073	0,0531	24,2867
32,6381	0,0535	25,0667
32,9142	0,0531	24,2157
33,1615	0,0531	25,1376
33,4633	0,0532	24,2157
33,7331	0,0529	25,0667
34,0349	0,0527	24,2157
34,3239	0,0523	25,0312
34,5423	0,0523	24,3221
34,9212	0,0521	24,9603
35,2070	0,0520	24,1448
35,4703	0,0524	24,9603
35,7657	0,0523	24,1448
36,0066	0,0523	25,0312
36,3084	0,0519	24,1094
36,6167	0,0514	25,0667
36,8928	0,0516	24,1094
37,1722	0,0514	25,0312
37,3809	0,0516	24,0739
37,7309	0,0514	24,9248
37,9975	0,0520	24,2512
38,2383	0,0510	24,9248
38,5016	0,0512	24,2512
38,8292	0,0519	25,0312
39,1503	0,0509	24,2867
39,3879	0,0505	25,0312
39,6962	0,0514	24,2512
39,9595	0,0510	24,9603
40,2260	0,0507	24,2867
40,4989	0,0503	24,9603
40,7847	0,0504	24,2867
41,0641	0,0502	24,9603
41,3082	0,0497	24,2867
41,5875	0,0500	25,0312
41,8862	0,0503	24,2867
42,1238	0,0497	25,0312
42,3614	0,0498	24,2512
42,6279	0,0500	25,0312
42,9908	0,0496	24,2867
43,1257	0,0493	25,0312
43,4371	0,0492	24,1448
43,7261	0,0493	25,0667
43,9670	0,0494	24,1448
44,2688	0,0492	25,1021
44,5257	0,0491	24,2157
44,8147	0,0488	24,9603
45,0812	0,0488	24,1448
45,2258	0,0488	25,0312
45,6271	0,0487	24,2157
45,8969	0,0486	25,1021
46,0928	0,0483	24,1448
46,4171	0,0487	24,9603
46,6162	0,0483	24,2157
46,9373	0,0485	25,1021
47,1653	0,0478	24,2867
47,4061	0,0478	24,9248
47,6181	0,0480	24,1094
47,9263	0,0477	25,0667
48,2025	0,0473	24,2867
48,4851	0,0476	25,0667
48,7259	0,0473	24,3576
48,9218	0,0470	25,0667
49,1273	0,0466	24,2512
49,4741	0,0472	24,9603
49,7503	0,0469	24,2157
50,0007	0,0475	24,9248
50,2801	0,0469	24,3221
50,4792	0,0464	25,0312
50,7297	0,0466	24,2867
50,9865	0,0465	24,9603
51,2820	0,0466	24,2157
51,5196	0,0458	25,0667
51,7283	0,0459	24,3576
51,9724	0,0451	24,9248
52,2357	0,0460	24,3221
52,4701	0,0465	25,0312
52,7430	0,0455	24,2867
52,9550	0,0455	25,0667
53,1541	0,0458	24,2512
53,4174	0,0459	24,9248
53,6646	0,0446	24,2867
53,9504	0,0454	25,1021
54,1816	0,0443	24,2512
54,3807	0,0449	25,0667
54,6890	0,0450	24,2157
54,8271	0,0443	25,1021
55,1514	0,0442	24,2867
55,3633	0,0440	25,0312
55,5785	0,0439	24,2512
55,8771	0,0445	25,0312
56,1276	0,0438	24,2512
56,3684	0,0440	25,0667
56,5804	0,0439	24,3576
56,7794	0,0439	25,0667
56,9657	0,0433	24,3576
57,2611	0,0429	25,0667
57,4442	0,0431	24,2157
57,7203	0,0431	25,0312
57,9676	0,0429	24,1094
58,1506	0,0428	24,9603
58,4075	0,0424	24,2512
58,4621	0,0423	24,9248
58,8121	0,0418	24,2867
59,0915	0,0427	24,9248
59,2745	0,0417	24,2512
59,5282	0,0415	24,9603
59,7594	0,0421	24,3221
59,9681	0,0412	25,0667
60,1768	0,0415	24,3221
60,4145	0,0410	24,9603
60,6842	0,0410	24,2867
60,8769	0,0406	24,9603
61,0824	0,0405	24,3221
61,3039	0,0406	25,0667
61,5255	0,0399	24,3930
61,7053	0,0402	25,0312
61,9526	0,0396	24,3930
62,1485	0,0399	24,9248
62,2448	0,0391	24,3221
62,5531	0,0393	24,9248
62,7650	0,0391	24,3576
62,9545	0,0390	24,9603
63,1953	0,0385	24,3576
63,3109	0,0380	24,9248
63,6160	0,0386	24,3221
63,8279	0,0380	25,0667
64,0238	0,0374	24,3576
64,2325	0,0375	25,0667
64,3931	0,0373	24,3221
64,6371	0,0368	25,1021
64,7816	0,0369	24,2867
64,9486	0,0359	25,1021
65,1959	0,0364	24,2512
65,3307	0,0364	25,1730
65,5940	0,0358	24,1448
65,7803	0,0362	25,1730
65,9312	0,0353	24,2512
66,0918	0,0350	25,1376
66,3326	0,0347	24,2512
66,4739	0,0345	25,0667
66,6858	0,0340	24,2157
66,8721	0,0331	25,0667
66,9716	0,0331	24,2867
67,1900	0,0328	25,0312
67,3987	0,0330	24,2867
67,5721	0,0323	24,9603
67,7359	0,0331	24,2512
67,9189	0,0326	24,9248
68,0506	0,0312	24,2512
68,2529	0,0319	25,0312
68,3556	0,0312	24,2867
68,5740	0,0307	25,1021
68,7442	0,0299	24,2867
68,9047	0,0302	25,1021
69,0974	0,0296	24,3221
69,2002	0,0298	25,0667
69,3447	0,0286	24,3221
69,5726	0,0283	25,1021
69,7011	0,0285	24,3221
69,8199	0,0275	25,1021
69,9580	0,0281	24,2867
70,0800	0,0275	25,1021
70,2149	0,0269	24,3221
70,3947	0,0259	25,0312
70,4814	0,0258	24,3576
70,6098	0,0255	25,0312
70,7511	0,0248	24,2157
70,9374	0,0250	25,0312
71,0690	0,0244	24,2867
71,2007	0,0239	25,0312
71,3035	0,0236	24,3576
71,4255	0,0234	24,9603
71,5314	0,0228	24,2512
71,6695	0,0224	25,0312
71,7980	0,0220	24,2867
71,9425	0,0217	25,1021
72,0099	0,0218	24,2512
72,1351	0,0209	24,9603
72,2347	0,0210	24,2512
72,3824	0,0202	24,9603
72,3792	0,0199	24,3221
72,5494	0,0190	25,0312
72,6746	0,0188	24,3576
72,7549	0,0180	25,0667
72,8576	0,0179	24,3221
72,9090	0,0169	25,1021
73,0856	0,0169	24,3221
73,1274	0,0164	25,1021
73,2109	0,0163	24,3576
73,3457	0,0155	25,1021
73,3361	0,0155	24,2867
73,4517	0,0155	25,0312
73,5513	0,0145	24,2512
73,5898	0,0137	25,0312
73,6797	0,0144	24,2867
73,7857	0,0135	25,0312
73,8081	0,0135	24,2512
73,9302	0,0125	24,9603
73,9880	0,0126	24,3221
74,0169	0,0128	25,1021
74,1421	0,0119	24,3221
74,1967	0,0114	25,1021
74,2352	0,0114	24,3221
74,3219	0,0107	25,0667
74,2481	0,0101	24,3221
74,3669	0,0102	25,1021
74,4375	0,0099	24,3930
74,5371	0,0099	25,0667
74,5692	0,0097	24,3221
74,5467	0,0087	24,9603
74,6623	0,0088	24,3221

28.01.2016	09:21:03
V	I	G
[V]	[A]	[W/m²]
0,2248	0,0703	27,3712
0,7899	0,0705	28,8249
1,2202	0,0702	27,4776
1,6152	0,0698	28,7185
2,0230	0,0703	27,5131
2,3666	0,0698	28,7894
2,8162	0,0697	27,5131
3,1277	0,0696	28,7894
3,5804	0,0698	27,4422
3,8020	0,0694	28,7894
4,3607	0,0693	27,3712
4,7300	0,0694	28,8603
5,1250	0,0693	27,4776
5,3851	0,0689	28,8958
5,8603	0,0689	27,4422
6,2778	0,0687	28,8603
6,6439	0,0694	27,4422
7,0452	0,0688	28,8249
7,3953	0,0686	27,4422
7,8352	0,0686	28,8603
8,1820	0,0683	27,5485
8,5866	0,0680	29,0022
8,7472	0,0683	27,3712
9,2995	0,0680	28,9667
9,6720	0,0677	27,4776
10,0412	0,0678	28,8958
10,4748	0,0678	27,3712
10,7991	0,0670	28,9313
11,2326	0,0676	27,5131
11,5665	0,0672	28,9313
11,9358	0,0670	27,5131
12,0932	0,0676	28,8249
12,7129	0,0675	27,4776
13,0501	0,0672	28,9667
13,4451	0,0671	27,4422
13,8336	0,0670	28,8958
14,1547	0,0672	27,5485
14,5593	0,0666	28,9313
14,8162	0,0659	27,5131
15,2690	0,0661	28,7894
15,5580	0,0665	27,4776
16,0236	0,0660	28,7894
16,3833	0,0657	27,5485
16,6883	0,0661	28,8603
16,9227	0,0660	27,6194
17,4333	0,0656	28,8249
17,8026	0,0656	27,4776
18,2072	0,0660	28,8958
18,5668	0,0661	27,5485
18,7274	0,0651	28,9313
19,2283	0,0657	27,4422
19,6137	0,0648	28,8603
19,9637	0,0653	27,4422
20,1146	0,0650	28,8958
20,6573	0,0650	27,4776
21,0201	0,0653	28,9667
21,3477	0,0646	27,4422
21,6688	0,0643	28,9313
22,1055	0,0648	27,3712
22,4716	0,0640	28,9313
22,8055	0,0642	27,5131
23,1491	0,0642	28,9313
23,3579	0,0639	27,5485
23,8203	0,0638	28,8958
24,1542	0,0635	27,5131
24,5620	0,0638	28,8249
24,8157	0,0635	27,5485
25,2492	0,0630	28,9667
25,5800	0,0632	27,5485
25,8722	0,0629	28,9667
26,2511	0,0629	27,4776
26,4823	0,0629	28,8603
26,9319	0,0629	27,4422
27,2787	0,0630	28,8603
27,6351	0,0626	27,4776
27,7636	0,0626	29,0022
28,3255	0,0626	27,5485
28,6595	0,0623	28,9313
29,0031	0,0624	27,5131
29,3242	0,0623	28,9313
29,6356	0,0626	27,5131
29,9696	0,0616	28,8603
30,3421	0,0615	27,4422
30,6793	0,0621	28,8958
30,8077	0,0619	27,4776
31,3986	0,0617	28,9667
31,7133	0,0612	27,5485
32,0055	0,0612	29,0022
32,3587	0,0615	27,4422
32,6734	0,0611	28,8603
33,0266	0,0606	27,5131
33,3445	0,0607	28,8958
33,6624	0,0607	27,4776
33,7652	0,0605	28,9313
34,3175	0,0610	27,4776
34,6450	0,0604	28,8958
34,9822	0,0605	27,4422
35,2680	0,0601	28,9667
35,6565	0,0606	27,3712
35,9809	0,0596	28,9667
36,2859	0,0602	27,4776
36,6520	0,0595	29,0022
36,9185	0,0596	27,5131
37,2910	0,0595	28,8958
37,6057	0,0592	27,4422
37,8915	0,0588	28,8958
38,0328	0,0594	27,3358
38,5434	0,0592	28,8958
38,8677	0,0589	27,4422
39,2081	0,0592	28,8603
39,5099	0,0591	27,3712
39,8182	0,0586	28,8603
40,1168	0,0585	27,3712
40,4572	0,0583	28,8958
40,7366	0,0583	27,4776
40,9581	0,0583	28,8603
41,4334	0,0579	27,4776
41,7384	0,0583	28,9667
42,0178	0,0578	27,5485
42,2458	0,0580	28,9667
42,5766	0,0577	27,4422
42,9651	0,0574	28,8958
43,3087	0,0574	27,4776
43,6009	0,0569	29,0022
43,8706	0,0575	27,5131
44,1950	0,0569	28,9667
44,4390	0,0568	27,4776
44,7987	0,0570	28,8958
44,8661	0,0569	27,3358
45,4313	0,0565	29,0022
45,7556	0,0568	27,5485
45,9386	0,0561	28,8603
46,3208	0,0564	27,4776
46,6354	0,0557	28,9313
46,8859	0,0562	27,5131
47,2359	0,0561	28,8958
47,5442	0,0548	27,5485
47,6598	0,0553	28,8958
48,1318	0,0558	27,4776
48,4208	0,0556	28,8958
48,7387	0,0551	27,6194
48,8383	0,0547	28,8958
49,2782	0,0550	27,6549
49,5191	0,0547	28,8249
49,8498	0,0548	27,6194
50,1934	0,0542	28,7185
50,4278	0,0543	27,5485
50,7939	0,0537	28,9313
51,0508	0,0538	27,4776
51,4072	0,0541	28,8958
51,3847	0,0534	27,4776
51,9499	0,0538	28,8603
52,2068	0,0535	27,5131
52,4701	0,0525	28,9667
52,7495	0,0540	27,4776
53,0995	0,0531	28,8958
53,3917	0,0531	27,4422
53,6775	0,0529	28,9667
53,9536	0,0524	27,5485
54,0371	0,0524	28,8958
54,4225	0,0525	27,5131
54,7885	0,0523	28,8958
55,0808	0,0523	27,4776
55,0551	0,0523	28,9667
55,5881	0,0515	27,4422
55,8643	0,0514	28,8603
56,2111	0,0516	27,5131
56,4840	0,0512	28,9667
56,6574	0,0507	27,5485
56,9400	0,0512	28,9313
57,2386	0,0510	27,4422
57,4923	0,0510	28,9313
57,6721	0,0504	27,5840
58,0286	0,0502	28,8603
58,3593	0,0500	27,5131
58,6259	0,0498	28,9313
58,7575	0,0502	27,5840
59,1268	0,0493	28,9313
59,4062	0,0493	27,5485
59,6245	0,0491	28,8958
59,9071	0,0487	27,5131
60,0099	0,0482	28,8958
60,4530	0,0485	27,5131
60,6842	0,0482	28,8603
60,9796	0,0482	27,5485
60,8833	0,0483	28,8958
61,4420	0,0477	27,5485
61,6861	0,0473	28,8249
61,8916	0,0472	27,4776
62,1838	0,0470	28,9313
62,4182	0,0467	27,5131
62,7522	0,0466	28,8958
62,9866	0,0465	27,5131
63,2338	0,0464	28,9667
63,2210	0,0459	27,5840
63,6674	0,0450	28,8603
63,9339	0,0451	27,5131
64,1201	0,0446	28,8958
64,3513	0,0446	27,5485
64,6564	0,0442	28,8958
64,9036	0,0442	27,6194
65,0674	0,0433	28,8958
65,3982	0,0435	27,5131
65,5202	0,0428	28,8603
65,7642	0,0427	27,4776
66,0693	0,0423	28,9667
66,2844	0,0415	27,5485
66,2042	0,0423	28,8603
66,6537	0,0415	27,4776
66,9331	0,0411	29,0022
67,0904	0,0406	27,5840
67,3794	0,0404	29,0022
67,5143	0,0401	27,4776
67,7905	0,0399	28,8958
68,0120	0,0391	27,4776
68,2272	0,0388	29,0022
68,2015	0,0386	27,5131
68,5258	0,0380	28,8603
68,8341	0,0377	27,5131
69,0268	0,0373	28,9313
69,1777	0,0373	27,5840
69,3222	0,0358	28,9313
69,5566	0,0353	27,5131
69,7717	0,0359	28,8958
69,9772	0,0350	27,5131
69,9130	0,0346	28,8603
70,2855	0,0339	27,4776
70,5039	0,0332	28,9667
70,6709	0,0328	27,4422
70,6098	0,0326	28,8603
70,9631	0,0316	27,5131
71,2007	0,0314	28,8958
71,2489	0,0310	27,5485
71,4865	0,0308	28,8958
71,5539	0,0298	27,5485
71,8044	0,0291	28,8958
71,9489	0,0282	27,5485
72,1191	0,0280	28,8958
72,1351	0,0276	27,5131
72,3278	0,0269	28,8958
72,5365	0,0265	27,4776
72,6521	0,0256	28,9667
72,6971	0,0253	27,5485
72,9476	0,0249	28,9313
73,0632	0,0239	27,5131
73,1659	0,0239	28,8603
73,3200	0,0238	27,5485
73,3811	0,0220	28,9667
73,4967	0,0218	27,4776
73,6990	0,0217	28,9667
73,7279	0,0202	27,4422
73,5673	0,0200	28,9313
73,8981	0,0194	27,5131
74,0618	0,0190	28,8603
74,1871	0,0185	27,4776
74,2224	0,0177	28,9667
74,2866	0,0171	27,4776
74,4568	0,0166	28,9313
74,5018	0,0162	27,6194
74,6238	0,0157	28,8958
74,5242	0,0151	27,5131
74,7586	0,0144	28,8603
74,8197	0,0146	27,5840
74,9031	0,0135	28,8958
74,8068	0,0126	27,5840
74,9770	0,0126	28,8603
75,1376	0,0124	27,4776
75,1825	0,0115	28,9667
75,2082	0,0112	27,4776
75,1986	0,0110	28,8958
75,3816	0,0105	27,4776
75,3559	0,0098	28,9667
75,4298	0,0099	27,4422
75,2788	0,0093	28,9667
75,5807	0,0090	27,5485
75,5550	0,0085	28,9667

28.01.2016	09:26:03
V	I	G
[V]	[A]	[W/m²]
0,4239	0,0794	31,3777
0,9216	0,0794	32,5831
1,3647	0,0791	31,5549
1,8271	0,0789	32,6895
2,2767	0,0781	31,4131
2,6492	0,0790	32,6186
3,1598	0,0789	31,5195
3,5836	0,0786	32,6186
4,0396	0,0786	31,5549
4,4635	0,0780	32,6540
4,9195	0,0779	31,5195
5,3337	0,0779	32,6895
5,7383	0,0776	31,4840
6,1943	0,0779	32,5831
6,6695	0,0778	31,4131
7,0838	0,0778	32,6186
7,4948	0,0772	31,5549
7,9540	0,0770	32,6540
8,3490	0,0769	31,5549
8,7279	0,0768	32,6540
9,1774	0,0768	31,4840
9,6110	0,0772	32,5831
10,0830	0,0770	31,5195
10,4491	0,0762	32,6186
10,8248	0,0759	31,5195
11,2679	0,0767	32,6186
11,7496	0,0763	31,3422
12,2023	0,0762	32,6186
12,5941	0,0761	31,5549
12,9602	0,0758	32,6186
13,4033	0,0753	31,4131
13,8143	0,0757	32,6540
14,1836	0,0754	31,4131
14,6685	0,0757	32,5831
15,1052	0,0758	31,4840
15,5291	0,0754	32,7604
15,8695	0,0752	31,4131
16,3287	0,0748	32,7249
16,7301	0,0745	31,4131
17,0351	0,0745	32,4768
17,5521	0,0746	31,4131
17,9888	0,0745	32,6895
18,3902	0,0748	31,4840
18,7691	0,0743	32,7604
19,1994	0,0740	31,5195
19,5751	0,0741	32,7604
19,9605	0,0734	31,3777
20,3811	0,0736	32,5831
20,8114	0,0740	31,4131
21,2000	0,0742	32,6186
21,5949	0,0732	31,5195
22,0349	0,0734	32,6895
22,3239	0,0731	31,4131
22,7895	0,0727	32,6540
23,1780	0,0722	31,4131
23,5987	0,0727	32,5831
23,9937	0,0731	31,5549
24,3501	0,0722	32,5831
24,7387	0,0722	31,4840
25,0598	0,0721	32,6186
25,5575	0,0721	31,5549
25,9428	0,0715	32,6540
26,3346	0,0722	31,4840
26,7360	0,0721	32,6540
27,1117	0,0714	31,5195
27,4906	0,0713	32,6186
27,8856	0,0714	31,5195
28,2452	0,0705	32,7249
28,6851	0,0707	31,4131
29,0801	0,0716	32,6895
29,3980	0,0713	31,4131
29,8058	0,0707	32,6540
30,1719	0,0708	31,5195
30,6150	0,0703	32,6540
30,9843	0,0699	31,5195
31,3793	0,0703	32,6186
31,6908	0,0702	31,5549
32,1050	0,0707	32,6186
32,4807	0,0698	31,5195
32,7954	0,0697	32,5831
33,2546	0,0687	31,4840
33,6335	0,0693	32,5831
34,0317	0,0693	31,5549
34,3785	0,0689	32,6540
34,6868	0,0694	31,5195
35,1588	0,0684	32,6895
35,4510	0,0687	31,4131
35,8267	0,0681	32,7604
36,2217	0,0678	31,3777
36,6103	0,0686	32,6540
36,9956	0,0680	31,5904
37,3552	0,0687	32,6186
37,7438	0,0681	31,5195
38,0264	0,0677	32,5831
38,4695	0,0675	31,5549
38,8003	0,0672	32,6540
39,1631	0,0675	31,4840
39,4971	0,0675	32,6186
39,8888	0,0676	31,5195
40,2517	0,0677	32,6186
40,6113	0,0669	31,5195
40,9870	0,0665	32,5477
41,3852	0,0660	31,6258
41,7095	0,0669	32,6186
42,0949	0,0665	31,5549
42,3678	0,0660	32,5831
42,7114	0,0661	31,4840
43,1546	0,0653	32,7249
43,4885	0,0650	31,5195
43,8064	0,0653	32,6186
44,1468	0,0656	31,5904
44,5129	0,0654	32,7604
44,8244	0,0657	31,4840
45,1551	0,0650	32,6186
45,5661	0,0644	31,5195
45,9354	0,0642	32,5831
46,3272	0,0642	31,5904
46,6258	0,0643	32,6540
46,9822	0,0642	31,5549
47,2809	0,0639	32,6540
47,5859	0,0639	31,4840
48,0259	0,0634	32,6895
48,3855	0,0639	31,5195
48,6874	0,0628	32,5831
49,0534	0,0638	31,5904
49,2589	0,0635	32,6186
49,6860	0,0634	31,5904
49,9943	0,0630	32,6186
50,4085	0,0632	31,5549
50,7714	0,0623	32,6895
51,0925	0,0622	31,4840
51,4168	0,0624	32,6895
51,7058	0,0623	31,4840
51,9724	0,0624	32,7249
52,3063	0,0621	31,4840
52,6820	0,0607	32,6895
53,0160	0,0607	31,5195
53,4270	0,0611	32,5831
53,7096	0,0611	31,5549
54,0275	0,0611	32,6895
54,2298	0,0616	31,5195
54,6826	0,0602	32,6895
54,8785	0,0604	31,4840
55,2638	0,0604	32,5831
55,6588	0,0599	31,5195
55,9702	0,0605	32,5831
56,2625	0,0597	31,6258
56,5354	0,0597	32,4768
56,8950	0,0585	31,6613
57,1841	0,0588	32,5831
57,5501	0,0589	31,5904
57,7749	0,0586	32,5831
58,1474	0,0589	31,5195
58,5135	0,0585	32,6895
58,7671	0,0588	31,5904
59,1107	0,0574	32,5831
59,4319	0,0577	31,5195
59,6534	0,0565	32,6186
59,9938	0,0565	31,5549
60,2443	0,0574	32,6895
60,5975	0,0570	31,5549
60,9315	0,0569	32,5831
61,2365	0,0559	31,6613
61,4934	0,0553	32,6186
61,8595	0,0552	31,5904
62,0875	0,0553	32,6540
62,3187	0,0552	31,6613
62,4921	0,0547	32,5831
62,9673	0,0550	31,6258
63,2820	0,0542	32,5477
63,5742	0,0542	31,4840
63,8729	0,0530	32,6895
64,1394	0,0534	31,6258
64,4091	0,0525	32,6540
64,5857	0,0532	31,5904
64,9647	0,0524	32,6186
65,2858	0,0510	31,6258
65,5362	0,0510	32,6540
65,7867	0,0507	31,5549
66,0725	0,0505	32,6540
66,3005	0,0502	31,5904
66,4578	0,0503	32,5831
66,8111	0,0502	31,6258
67,1129	0,0488	32,7249
67,3698	0,0485	31,5904
67,6010	0,0472	32,6540
67,8707	0,0472	31,6613
68,0955	0,0476	32,6186
68,3396	0,0467	31,5904
68,5579	0,0458	32,6540
68,8116	0,0448	31,5904
69,0589	0,0448	32,5831
69,2804	0,0440	31,6967
69,5534	0,0438	32,6895
69,6915	0,0433	31,5904
69,9740	0,0429	32,5831
70,1924	0,0422	31,6613
70,3883	0,0413	32,4768
70,6291	0,0404	31,6258
70,8699	0,0391	32,6540
71,0947	0,0401	31,5549
71,2424	0,0394	32,7249
71,4769	0,0381	31,5904
71,6920	0,0378	32,6540
71,8461	0,0363	31,6258
71,9971	0,0363	32,5477
72,2347	0,0348	31,5904
72,4370	0,0346	32,5831
72,5911	0,0341	31,6613
72,7998	0,0332	32,5831
72,9636	0,0320	31,5904
73,0471	0,0313	32,5831
73,2879	0,0303	31,6613
73,3265	0,0298	32,7249
73,5673	0,0289	31,5195
73,7022	0,0282	32,6895
73,9205	0,0283	31,6613
74,0040	0,0264	32,6186
74,1325	0,0256	31,5549
74,3091	0,0249	32,6186
74,4311	0,0240	31,6258
74,4985	0,0234	32,6895
74,6366	0,0224	31,6258
74,7490	0,0217	32,6186
74,9160	0,0211	31,5549
75,0155	0,0202	32,6540
75,1504	0,0193	31,6258
75,2243	0,0183	32,6895
75,2178	0,0184	31,5904
75,3045	0,0177	32,6186
75,3399	0,0177	31,6258
75,5646	0,0162	32,6540
75,6481	0,0153	31,5195
75,7605	0,0146	32,7249
75,7894	0,0140	31,5904
75,8183	0,0140	32,7249
75,9114	0,0132	31,6967
75,9500	0,0130	32,6540
76,0752	0,0124	31,5549
76,1683	0,0118	32,6895
76,2037	0,0105	31,5904
76,2615	0,0101	32,5477
76,2550	0,0101	31,6967
76,3032	0,0088	32,6186
76,3096	0,0097	31,6258
76,3225	0,0083	32,6895
76,5151	0,0083	31,6258
76,5151	0,0074	32,6186

28.01.2016	09:31:03
V	I	G
[V]	[A]	[W/m²]
0,4977	0,0883	35,2422
0,9344	0,0883	36,1286
1,5060	0,0878	35,1713
2,0038	0,0871	36,0932
2,4886	0,0873	35,3486
3,0024	0,0872	36,1641
3,4616	0,0871	35,3841
3,9369	0,0873	36,0932
4,4474	0,0870	35,2777
4,8777	0,0867	36,1995
5,3722	0,0862	35,3486
5,9117	0,0861	36,2350
6,3838	0,0870	35,2422
6,8044	0,0860	36,0932
7,2668	0,0862	35,3486
7,7324	0,0862	36,1995
8,2848	0,0851	35,2777
8,7472	0,0850	36,2350
9,1646	0,0853	35,2777
9,7105	0,0851	36,1995
10,1761	0,0851	35,3841
10,6064	0,0859	36,1641
11,1041	0,0849	35,3486
11,5890	0,0846	36,1995
12,0578	0,0850	35,3486
12,5427	0,0845	36,1641
12,9152	0,0849	35,3132
13,4515	0,0843	36,0932
13,8561	0,0841	35,2777
14,3281	0,0840	36,0932
14,7873	0,0834	35,3486
15,2529	0,0834	36,1995
15,7507	0,0832	35,2422
16,1488	0,0840	36,0932
16,5502	0,0840	35,2422
17,1154	0,0833	36,1641
17,5585	0,0830	35,4195
18,0306	0,0828	36,0932
18,4384	0,0827	35,1713
18,8912	0,0822	36,1995
19,3600	0,0823	35,3132
19,7903	0,0826	36,1995
20,1307	0,0823	35,2422
20,6637	0,0822	36,2350
21,1646	0,0817	35,1713
21,5982	0,0814	36,1286
22,0317	0,0813	35,2777
22,4973	0,0816	36,1995
22,9276	0,0812	35,2422
23,3386	0,0812	36,1286
23,7271	0,0805	35,2777
24,2570	0,0808	36,1641
24,6809	0,0805	35,2422
25,1786	0,0805	36,1995
25,5800	0,0807	35,1713
25,9974	0,0801	36,1995
26,4149	0,0800	35,3132
26,8965	0,0806	36,1995
27,3140	0,0789	35,2777
27,6415	0,0791	36,1641
28,1971	0,0794	35,2422
28,5728	0,0794	36,1641
29,0512	0,0799	35,3486
29,4462	0,0794	36,1641
29,9182	0,0791	35,3486
30,3453	0,0788	36,1286
30,7435	0,0781	35,3841
31,1064	0,0783	36,0932
31,5848	0,0786	35,3486
32,0215	0,0783	36,1995
32,4229	0,0779	35,2777
32,8982	0,0779	36,1995
33,2835	0,0775	35,1713
33,7555	0,0773	36,1641
34,1216	0,0778	35,3486
34,4909	0,0773	36,1641
34,9533	0,0768	35,3486
35,3772	0,0768	36,2350
35,7978	0,0764	35,3132
36,1960	0,0759	36,0932
36,6584	0,0763	35,3486
37,0116	0,0761	36,0932
37,4259	0,0768	35,2777
37,7470	0,0767	36,1286
38,2800	0,0762	35,3132
38,6558	0,0758	36,1641
39,0925	0,0757	35,3132
39,5195	0,0751	36,1995
39,9177	0,0753	35,3132
40,3063	0,0748	36,1641
40,6980	0,0754	35,3132
40,9870	0,0749	36,0932
41,5458	0,0749	35,3486
41,8990	0,0741	36,0932
42,3357	0,0740	35,3486
42,7275	0,0743	36,1995
43,1192	0,0738	35,3486
43,4757	0,0741	36,1641
43,8803	0,0742	35,3841
44,2175	0,0738	36,0932
44,6734	0,0735	35,2422
45,0748	0,0730	36,1286
45,4987	0,0730	35,3132
45,9097	0,0732	36,1286
46,2565	0,0730	35,2777
46,6772	0,0732	36,1995
47,0786	0,0724	35,3132
47,3226	0,0720	36,1286
47,8589	0,0716	35,3486
48,2346	0,0720	36,1286
48,5878	0,0716	35,3132
48,9475	0,0716	36,1995
49,3745	0,0714	35,3486
49,7535	0,0707	36,1995
50,1452	0,0705	35,3486
50,4567	0,0707	36,1995
50,8677	0,0711	35,3486
51,2306	0,0704	36,0932
51,6224	0,0704	35,2777
51,9852	0,0702	36,0932
52,4027	0,0696	35,2777
52,7238	0,0694	36,1286
53,1348	0,0693	35,3132
53,3853	0,0689	36,2350
53,8284	0,0693	35,3841
54,2202	0,0694	36,2350
54,6248	0,0688	35,3132
54,9908	0,0686	36,1286
55,3280	0,0678	35,2777
55,7037	0,0676	36,1641
56,0569	0,0677	35,3132
56,4487	0,0680	36,2350
56,7345	0,0677	35,3132
57,1102	0,0670	36,1641
57,4987	0,0667	35,2777
57,8873	0,0665	36,1995
58,2309	0,0662	35,2422
58,5263	0,0660	36,1286
58,8795	0,0661	35,2777
59,2135	0,0660	36,2350
59,5667	0,0653	35,2777
59,9553	0,0653	36,1286
60,2796	0,0643	35,3841
60,6714	0,0640	36,1995
60,9764	0,0648	35,2777
61,3007	0,0634	36,1641
61,6572	0,0633	35,3841
61,9943	0,0632	36,1641
62,2737	0,0628	35,2777
62,6558	0,0616	36,1641
63,0315	0,0619	35,3486
63,2949	0,0617	36,0577
63,6385	0,0616	35,4550
63,9949	0,0611	36,1641
64,3032	0,0612	35,3841
64,6114	0,0604	36,1286
64,8619	0,0596	35,3132
65,2793	0,0591	36,1995
65,5523	0,0595	35,2777
65,8638	0,0588	36,1641
66,1913	0,0585	35,3132
66,4835	0,0575	36,1641
66,8303	0,0568	35,3486
67,0680	0,0562	36,2350
67,3473	0,0562	35,2777
67,6813	0,0556	36,2350
67,9896	0,0556	35,3486
68,2561	0,0547	36,1641
68,5579	0,0537	35,3486
68,8052	0,0531	36,1641
69,1391	0,0527	35,3486
69,3703	0,0521	36,1286
69,6048	0,0520	35,3132
69,9194	0,0507	36,1641
70,1763	0,0502	35,3841
70,4525	0,0492	36,1641
70,6516	0,0480	35,2422
70,9791	0,0473	36,1641
71,1622	0,0465	35,3486
71,4512	0,0461	36,2350
71,5989	0,0449	35,3132
71,8686	0,0440	36,1995
72,1672	0,0432	35,3132
72,3503	0,0417	36,1286
72,5943	0,0411	35,3486
72,7709	0,0405	36,0932
72,9668	0,0399	35,3486
73,2109	0,0394	36,2350
73,2783	0,0378	35,3486
73,6155	0,0372	36,1286
73,7407	0,0357	35,3132
74,0008	0,0337	36,2350
74,1164	0,0337	35,2777
74,3219	0,0323	36,2350
74,4632	0,0316	35,2777
74,5756	0,0302	36,1995
74,6976	0,0292	35,2422
74,9609	0,0276	36,1286
75,0862	0,0265	35,2777
75,2403	0,0259	36,1995
75,3366	0,0259	35,3132
75,4619	0,0245	36,1286
75,6000	0,0234	35,3841
75,7284	0,0220	36,1995
75,7445	0,0212	35,2422
75,9050	0,0204	36,1286
76,0945	0,0197	35,3841
76,1748	0,0189	36,1286
76,2293	0,0185	35,3841
76,3096	0,0174	36,1995
76,3931	0,0162	35,2422
76,4477	0,0152	36,1286
76,4573	0,0145	35,4195
76,6436	0,0136	36,1286
76,7271	0,0132	35,2777
76,7528	0,0126	36,1641
76,8234	0,0115	35,4195
76,9294	0,0109	36,1995
76,9743	0,0103	35,2777
77,0097	0,0097	36,1641
76,9262	0,0098	35,3486
77,0675	0,0093	36,2704
77,1670	0,0090	35,3132
77,2280	0,0079	36,1995

28.01.2016	09:36:03
V	I	G
[V]	[A]	[W/m²]
0,5587	0,0983	40,4187
1,0982	0,0979	39,6387
1,6794	0,0975	40,4187
2,2285	0,0979	39,5678
2,7776	0,0971	40,4896
3,2786	0,0979	39,5678
3,8694	0,0975	40,4896
4,3832	0,0978	39,6387
4,9741	0,0971	40,3832
5,4365	0,0971	39,7096
6,0370	0,0970	40,4187
6,5925	0,0965	39,7450
7,0966	0,0959	40,4896
7,6361	0,0964	39,7096
8,1659	0,0964	40,4541
8,6861	0,0965	39,6032
9,1357	0,0952	40,3832
9,7619	0,0956	39,6387
10,2789	0,0957	40,4187
10,7894	0,0953	39,6387
11,3161	0,0953	40,4896
11,8363	0,0959	39,6741
12,3629	0,0954	40,5250
12,8221	0,0945	39,6387
13,3937	0,0946	40,3832
13,9171	0,0945	39,5678
14,4598	0,0949	40,4896
14,9768	0,0945	39,6032
15,4938	0,0946	40,4187
15,9979	0,0937	39,6032
16,4635	0,0937	40,4896
17,0255	0,0931	39,6387
17,5136	0,0927	40,4187
18,0466	0,0936	39,6387
18,5058	0,0932	40,3832
19,0549	0,0936	39,6032
19,5559	0,0924	40,4187
20,0568	0,0925	39,6741
20,5577	0,0918	40,3832
21,0779	0,0916	39,6032
21,5725	0,0924	40,4541
22,0252	0,0920	39,6741
22,5519	0,0915	40,4896
23,0849	0,0919	39,6741
23,5634	0,0910	40,4896
24,1061	0,0910	39,6387
24,5685	0,0910	40,4187
25,0373	0,0909	39,7096
25,4579	0,0910	40,4187
26,0327	0,0906	39,6032
26,5305	0,0906	40,4187
27,0539	0,0902	39,6741
27,5227	0,0899	40,4187
28,0044	0,0899	39,6032
28,4636	0,0895	40,4187
28,8650	0,0895	39,6387
29,4237	0,0895	40,4187
29,9343	0,0894	39,7096
30,4192	0,0891	40,4541
30,8944	0,0888	39,6032
31,3729	0,0886	40,3832
31,8128	0,0888	39,6741
32,2110	0,0887	40,4541
32,7280	0,0882	39,6032
33,2097	0,0881	40,4187
33,6721	0,0873	39,6387
34,2404	0,0873	40,4541
34,6579	0,0871	39,5678
35,1717	0,0870	40,5605
35,6052	0,0873	39,6387
36,0997	0,0872	40,4896
36,5878	0,0865	39,7096
37,0405	0,0862	40,4541
37,4901	0,0860	39,6032
37,9429	0,0861	40,4896
38,4342	0,0859	39,6387
38,8709	0,0865	40,4541
39,3815	0,0854	39,7096
39,8182	0,0849	40,4187
40,2710	0,0849	39,6032
40,7077	0,0845	40,4187
41,1733	0,0844	39,6741
41,6357	0,0841	40,6314
42,0756	0,0849	39,5678
42,5380	0,0840	40,4541
42,9747	0,0840	39,6387
43,4404	0,0841	40,4541
43,8546	0,0833	39,6741
44,3523	0,0833	40,3832
44,8404	0,0839	39,6741
45,2675	0,0835	40,4187
45,6817	0,0830	39,4968
46,1377	0,0827	40,3478
46,5455	0,0823	39,6387
46,9212	0,0824	40,2414
47,4800	0,0823	39,7450
47,8782	0,0822	40,4187
48,3277	0,0824	39,5678
48,7612	0,0817	40,4896
49,2011	0,0814	39,6032
49,6058	0,0813	40,4541
49,9718	0,0812	39,6032
50,4631	0,0807	40,4187
50,9384	0,0805	39,6741
51,3622	0,0808	40,4541
51,8054	0,0806	39,6741
52,2485	0,0800	40,4187
52,6531	0,0791	39,6387
53,0706	0,0800	40,4896
53,4944	0,0791	39,5678
53,9183	0,0790	40,4896
54,3454	0,0788	39,6741
54,7211	0,0788	40,4896
55,1514	0,0778	39,5678
55,5335	0,0776	40,3832
55,9702	0,0778	39,6032
56,3748	0,0772	40,4541
56,7762	0,0772	39,6032
57,1969	0,0763	40,4187
57,5469	0,0767	39,5678
58,0382	0,0761	40,4187
58,4396	0,0758	39,6032
58,8667	0,0761	40,3832
59,2617	0,0754	39,6387
59,6245	0,0753	40,4541
60,0516	0,0752	39,6741
60,3663	0,0746	40,4541
60,8094	0,0735	39,7096
61,2076	0,0738	40,4187
61,6186	0,0726	39,5678
61,9590	0,0727	40,4187
62,3700	0,0727	39,6032
62,7618	0,0724	40,3478
63,0829	0,0722	39,6387
63,5293	0,0711	40,4541
63,9050	0,0709	39,6387
64,2678	0,0704	40,5250
64,6724	0,0703	39,6387
65,0610	0,0699	40,4187
65,3982	0,0693	39,6741
65,6550	0,0691	40,4541
66,1046	0,0672	39,6387
66,4739	0,0678	40,4896
66,8111	0,0666	39,6741
67,1611	0,0665	40,4187
67,5239	0,0656	39,6741
67,8611	0,0651	40,3832
68,1341	0,0644	39,7450
68,5387	0,0634	40,4541
68,8726	0,0632	39,6032
69,1006	0,0624	40,3832
69,4731	0,0613	39,6032
69,8295	0,0606	40,4896
70,1314	0,0602	39,6032
70,4557	0,0585	40,4896
70,7383	0,0573	39,6032
71,0787	0,0568	40,4541
71,3420	0,0564	39,6387
71,5828	0,0551	40,4187
71,8911	0,0540	39,6032
72,1865	0,0534	40,4896
72,4595	0,0519	39,6387
72,6971	0,0505	40,3478
72,9700	0,0494	39,6387
73,2077	0,0477	40,3832
73,4421	0,0475	39,6387
73,6958	0,0460	40,4187
73,9655	0,0445	39,6741
74,1646	0,0431	40,4541
74,4054	0,0415	39,6741
74,6270	0,0400	40,4187
74,7843	0,0384	39,6741
74,9096	0,0374	40,2769
75,1986	0,0363	39,7096
75,3142	0,0347	40,3832
75,5229	0,0329	39,7096
75,7059	0,0319	40,3478
75,8569	0,0304	39,6387
75,9853	0,0289	40,4896
76,0784	0,0286	39,4968
76,2904	0,0269	40,3832
76,3963	0,0255	39,7096
76,5183	0,0239	40,3832
76,6661	0,0229	39,6032
76,7977	0,0221	40,3832
76,8812	0,0207	39,6032
76,9165	0,0195	40,4541
77,1028	0,0190	39,6741
77,1445	0,0174	40,4541
77,2344	0,0164	39,6387
77,3500	0,0156	40,3832
77,4464	0,0148	39,6032
77,4656	0,0137	40,4187
77,4913	0,0135	39,6032
77,5909	0,0125	40,4187
77,6262	0,0117	39,6387
77,6776	0,0110	40,4187
77,7450	0,0105	39,7096
77,8157	0,0092	40,4187
77,8413	0,0085	39,7096
77,8991	0,0087	40,3832
77,9313	0,0085	39,6032
78,0051	0,0075	40,4896

28.01.2016	09:41:03
V	I	G
[V]	[A]	[W/m²]
0,5363	0,1061	42,5105
1,1817	0,1060	42,6523
1,7790	0,1051	42,5814
2,3955	0,1052	42,5814
2,9735	0,1045	42,5814
3,5772	0,1049	42,6523
4,1552	0,1045	42,6169
4,7204	0,1048	42,6169
5,2117	0,1044	42,6523
5,8700	0,1043	42,6169
6,4994	0,1041	42,5814
6,8205	0,1037	42,6169
7,6136	0,1037	42,5460
8,1820	0,1038	42,5105
8,6829	0,1034	42,5460
9,2738	0,1034	42,5814
9,8582	0,1030	42,5105
10,4170	0,1028	42,7232
11,0239	0,1023	42,5460
11,6147	0,1021	42,5460
12,1317	0,1027	42,6169
12,7129	0,1025	42,5814
13,2267	0,1018	42,6169
13,7887	0,1019	42,6169
14,3699	0,1006	42,6169
14,7552	0,1017	42,6878
15,4906	0,1014	42,5105
16,0268	0,1008	42,5460
16,4635	0,1007	42,4396
17,1090	0,1014	42,5814
17,6356	0,0996	42,4396
18,1526	0,1001	42,6523
18,7242	0,0994	42,5105
19,3375	0,1001	42,6169
19,8770	0,1001	42,5814
20,3972	0,1006	42,6169
20,9399	0,1000	42,5814
21,4826	0,0991	42,5814
21,9963	0,0987	42,5105
22,3560	0,0984	42,6169
23,1138	0,0986	42,6523
23,6437	0,0991	42,6523
24,0579	0,0987	42,5460
24,7001	0,0983	42,6169
25,1818	0,0980	42,5460
25,6795	0,0974	42,6523
26,2768	0,0965	42,6169
26,8098	0,0975	42,6523
27,3333	0,0973	42,6169
27,8631	0,0970	42,5814
28,4090	0,0971	42,6169
28,8875	0,0964	42,5814
29,4301	0,0962	42,5105
29,6774	0,0964	42,5460
30,4320	0,0963	42,6523
30,9908	0,0960	42,6523
31,3921	0,0960	42,5460
32,0440	0,0959	42,5814
32,5193	0,0945	42,5460
32,9817	0,0946	42,6169
33,5854	0,0946	42,5460
34,0895	0,0952	42,6523
34,5423	0,0943	42,5105
35,0336	0,0943	42,6169
35,5602	0,0942	42,5460
36,1222	0,0938	42,6878
36,6392	0,0936	42,5105
36,9025	0,0933	42,6169
37,5864	0,0927	42,6523
38,1548	0,0935	42,6523
38,4117	0,0929	42,5105
39,0700	0,0925	42,6169
39,5902	0,0922	42,5460
40,0526	0,0925	42,7232
40,6274	0,0919	42,5105
41,1091	0,0922	42,6169
41,5426	0,0922	42,5814
42,0307	0,0916	42,5460
42,5830	0,0916	42,5460
43,0422	0,0908	42,6169
43,5527	0,0909	42,4396
43,8706	0,0900	42,7232
44,4904	0,0902	42,5460
45,0074	0,0905	42,6523
45,2322	0,0904	42,5460
45,9194	0,0898	42,6169
46,3978	0,0895	42,6169
46,8891	0,0891	42,5814
47,4061	0,0883	42,4396
47,8332	0,0886	42,6523
48,2956	0,0888	42,5460
48,7837	0,0892	42,6878
49,3200	0,0883	42,6169
49,7535	0,0878	42,6523
50,2608	0,0878	42,5460
50,5787	0,0878	42,6523
51,1632	0,0883	42,5460
51,5710	0,0871	42,6169
51,7893	0,0872	42,5105
52,5600	0,0868	42,6878
53,0449	0,0865	42,5460
53,3307	0,0857	42,5814
53,8766	0,0860	42,5460
54,4160	0,0859	42,7232
54,8335	0,0860	42,5105
55,2863	0,0859	42,6523
55,7037	0,0840	42,5814
56,1661	0,0840	42,6878
56,6317	0,0837	42,5460
56,9914	0,0840	42,6169
57,4602	0,0839	42,5814
57,9290	0,0834	42,7232
58,1474	0,0833	42,5460
58,8667	0,0827	42,6878
59,2874	0,0824	42,5105
59,5924	0,0817	42,6169
60,1158	0,0814	42,5814
60,5654	0,0814	42,6169
60,9860	0,0812	42,5460
61,3874	0,0808	42,6878
61,8402	0,0797	42,6169
62,2512	0,0794	42,6169
62,6912	0,0786	42,5814
63,0572	0,0789	42,6523
63,4683	0,0781	42,5105
63,8986	0,0779	42,7232
64,0559	0,0776	42,4396
64,7463	0,0763	42,6523
65,1445	0,0763	42,4396
65,4206	0,0754	42,6523
65,9023	0,0743	42,4041
66,2780	0,0746	42,7232
66,5831	0,0738	42,5814
67,0904	0,0736	42,6878
67,4758	0,0716	42,4396
67,8129	0,0711	42,6523
68,2272	0,0699	42,5814
68,5965	0,0698	42,6878
68,8855	0,0691	42,5105
69,2772	0,0684	42,6523
69,4121	0,0680	42,5105
69,9965	0,0662	42,6878
70,3337	0,0653	42,4041
70,5392	0,0642	42,7232
71,0241	0,0634	42,5105
71,3805	0,0623	42,7232
71,5892	0,0612	42,5814
71,9971	0,0607	42,7942
72,3278	0,0584	42,5460
72,5911	0,0570	42,6169
72,9251	0,0558	42,5105
73,1788	0,0548	42,6878
73,4517	0,0537	42,4396
73,7118	0,0521	42,6169
73,7375	0,0509	42,5460
74,2513	0,0487	42,6878
74,5114	0,0469	42,5105
74,5981	0,0455	42,6169
74,9545	0,0440	42,5460
75,2114	0,0429	42,7232
75,3077	0,0411	42,5105
75,5422	0,0395	42,7942
75,7766	0,0368	42,5460
76,0174	0,0353	42,6878
76,1298	0,0336	42,4396
76,3289	0,0329	42,8296
76,4830	0,0310	42,5460
76,6564	0,0296	42,7232
76,6083	0,0287	42,5105
76,9262	0,0266	42,6523
77,0097	0,0245	42,5460
76,9230	0,0231	42,6878
77,2954	0,0221	42,5460
77,4175	0,0211	42,7232
77,4367	0,0202	42,5814
77,5588	0,0189	42,6169
77,6615	0,0171	42,5460
77,7322	0,0163	42,7942
77,8349	0,0146	42,5460
77,9280	0,0147	42,6523
77,9473	0,0136	42,4041
77,9858	0,0129	42,8296
77,9409	0,0121	42,5814
78,1689	0,0110	42,6878
78,1721	0,0102	42,4396
78,0244	0,0097	42,6169
78,3198	0,0099	42,5460
78,2716	0,0082	42,6523
78,3455	0,0082	42,6169
78,4418	0,0080	42,7942

28.01.2016	09:46:03
V	I	G
[V]	[A]	[W/m²]
0,6294	0,1147	47,1197
1,3294	0,1153	46,6233
1,9716	0,1146	47,1197
2,6363	0,1147	46,5878
3,1983	0,1146	47,1197
3,9208	0,1148	46,5878
4,5534	0,1146	47,2260
5,1764	0,1136	46,5524
5,7608	0,1136	47,1906
6,3677	0,1136	46,5878
7,0067	0,1131	47,1197
7,6040	0,1125	46,4815
8,2719	0,1129	47,1906
8,8017	0,1126	46,4460
9,4665	0,1127	47,1906
10,1087	0,1116	46,4815
10,7027	0,1117	47,1197
11,3225	0,1117	46,5524
11,9487	0,1117	47,0133
12,4913	0,1113	46,4815
13,1561	0,1116	47,1551
13,7822	0,1109	46,6587
14,3763	0,1108	47,1551
15,0121	0,1109	46,6233
15,5451	0,1103	47,1551
16,1970	0,1105	46,4815
16,7622	0,1098	47,1197
17,4076	0,1100	46,5524
17,9760	0,1093	47,1197
18,5411	0,1097	46,4460
19,1513	0,1088	47,1551
19,7646	0,1088	46,5878
20,3105	0,1083	47,1551
20,9656	0,1082	46,5524
21,4890	0,1084	47,1906
22,1537	0,1078	46,6587
22,6899	0,1082	47,0133
23,2904	0,1079	46,6587
23,8813	0,1072	47,1551
24,4111	0,1079	46,4815
25,0566	0,1067	47,2260
25,6281	0,1065	46,4460
26,1066	0,1062	47,0133
26,7681	0,1063	46,4815
27,2690	0,1066	47,1551
27,9273	0,1055	46,5878
28,4989	0,1056	47,2260
29,0833	0,1051	46,5524
29,6324	0,1051	47,0842
30,1976	0,1055	46,6587
30,7820	0,1046	47,1906
31,3632	0,1044	46,5524
31,8963	0,1044	47,2260
32,4422	0,1038	46,6587
32,9656	0,1038	47,1197
33,5854	0,1039	46,5878
34,1698	0,1044	47,1551
34,7382	0,1038	46,5878
35,2937	0,1034	47,2615
35,8075	0,1034	46,4460
36,3983	0,1024	47,1906
36,9474	0,1027	46,6233
37,4997	0,1021	47,0842
38,0264	0,1017	46,6587
38,4823	0,1016	47,0842
39,1374	0,1019	46,6233
39,6608	0,1012	47,1906
40,2099	0,1006	46,6233
40,7173	0,1005	47,0842
41,2247	0,1006	46,4815
41,7898	0,1010	47,1551
42,3229	0,1002	46,5524
42,8945	0,0998	47,1197
43,4404	0,1000	46,5878
43,9220	0,0996	47,0842
44,5257	0,0991	46,5878
45,0074	0,0987	47,1197
45,5661	0,0990	46,5524
46,0671	0,0990	47,0842
46,5616	0,0987	46,5878
47,1267	0,0979	47,1197
47,6502	0,0975	46,6233
48,1800	0,0970	47,1197
48,7291	0,0970	46,5524
49,1305	0,0969	47,1906
49,7278	0,0968	46,4815
50,2030	0,0964	47,1906
50,7714	0,0964	46,6587
51,2916	0,0957	47,1551
51,7669	0,0956	46,4815
52,2871	0,0957	47,0842
52,7752	0,0949	46,4815
53,2568	0,0951	47,1906
53,7353	0,0943	46,6233
54,2523	0,0942	47,1551
54,8303	0,0937	46,5878
55,3312	0,0936	47,1551
55,7776	0,0931	46,4815
56,2400	0,0927	47,0842
56,7505	0,0931	46,5524
57,2868	0,0924	47,1906
57,7588	0,0919	46,5524
58,2534	0,0913	47,1551
58,7254	0,0909	46,5524
59,1428	0,0905	47,0842
59,6855	0,0902	46,4815
60,1094	0,0904	47,1551
60,5943	0,0895	46,5524
61,1081	0,0889	47,1906
61,5352	0,0886	46,6233
62,0457	0,0881	47,1197
62,5242	0,0877	46,5524
62,9802	0,0878	47,1551
63,3141	0,0867	46,4815
63,8054	0,0861	47,1197
64,3610	0,0855	46,5878
64,7977	0,0851	47,1906
65,1830	0,0845	46,5524
65,6583	0,0839	47,1197
66,0629	0,0837	46,5524
66,5060	0,0823	47,1551
66,9427	0,0819	46,4815
67,3762	0,0806	47,1551
67,7712	0,0795	46,5524
68,2208	0,0786	47,1906
68,6543	0,0780	46,6233
69,0011	0,0773	47,1197
69,4089	0,0767	46,4815
69,8263	0,0758	47,1551
70,2213	0,0742	46,5524
70,6387	0,0730	47,1551
70,9213	0,0715	46,4815
71,3324	0,0697	47,1906
71,7402	0,0687	46,5878
72,0516	0,0678	47,1551
72,4049	0,0662	46,5878
72,7324	0,0648	47,0842
73,0888	0,0626	46,4815
73,3843	0,0611	47,1197
73,6861	0,0599	46,4815
73,9719	0,0580	47,1551
74,3123	0,0565	46,5524
74,5852	0,0546	47,0842
74,8839	0,0519	46,4460
75,1215	0,0503	47,1197
75,3688	0,0485	46,4815
75,5871	0,0464	47,1906
75,8569	0,0443	46,5524
76,0431	0,0422	47,1551
76,3000	0,0405	46,5878
76,5151	0,0381	47,1197
76,6693	0,0364	46,5524
76,8395	0,0337	47,0842
77,0514	0,0330	46,4815
77,1606	0,0310	47,0842
77,3404	0,0291	46,4815
77,4688	0,0269	47,0842
77,6005	0,0250	46,5524
77,6744	0,0239	47,0133
77,8446	0,0228	46,4460
77,9313	0,0211	47,1906
78,0372	0,0199	46,4815
78,1175	0,0185	47,0842
78,1849	0,0172	46,4815
78,1849	0,0156	47,1197
78,3615	0,0145	46,5524
78,4418	0,0134	47,1906
78,5221	0,0134	46,6233
78,5606	0,0119	47,1551
78,6345	0,0112	46,5524
78,6955	0,0099	47,2260
78,7597	0,0092	46,5524
78,7340	0,0088	47,1197
78,7918	0,0082	46,5524
78,8561	0,0080	47,2260

28.01.2016	09:51:03
V	I	G
[V]	[A]	[W/m²]
0,7032	0,1221	55,2034
1,3455	0,1208	54,8134
2,0872	0,1205	55,1679
2,6267	0,1202	54,7070
3,3942	0,1200	55,2034
3,9272	0,1209	54,7425
4,7011	0,1202	55,1325
5,3690	0,1197	54,8134
6,0498	0,1192	55,1325
6,7113	0,1190	54,6716
7,3921	0,1189	55,2388
8,0214	0,1185	54,7070
8,5063	0,1191	55,1325
9,3444	0,1184	54,7070
9,9738	0,1186	55,2388
10,5968	0,1173	54,7779
11,2358	0,1174	55,2034
11,9647	0,1175	54,7779
12,5395	0,1176	55,1679
13,1015	0,1175	54,7779
13,7822	0,1176	55,2034
14,4919	0,1171	54,8843
15,1149	0,1158	55,1325
15,7121	0,1160	54,7779
16,3929	0,1157	55,2743
17,0030	0,1157	54,7425
17,6163	0,1164	55,2388
18,2907	0,1157	54,7779
18,8398	0,1157	55,3098
19,5655	0,1146	54,7779
20,1371	0,1147	55,2034
20,7408	0,1143	54,7425
21,3541	0,1146	55,2388
22,0477	0,1146	54,9198
22,6643	0,1143	55,2388
23,0753	0,1138	54,8843
23,9070	0,1130	55,2743
24,4657	0,1130	54,9552
25,1111	0,1125	55,3098
25,6731	0,1129	54,7779
26,3185	0,1129	55,2743
26,9319	0,1125	54,8843
27,3750	0,1125	55,3452
28,1714	0,1117	54,8843
28,7654	0,1117	55,3452
29,3980	0,1111	54,8843
29,9664	0,1111	55,3452
30,5476	0,1115	54,9552
31,1834	0,1110	55,2743
31,6458	0,1108	54,9198
32,3459	0,1097	55,4516
32,8821	0,1102	54,8843
33,5147	0,1092	55,2388
34,1569	0,1100	54,9907
34,7060	0,1094	55,4161
35,3097	0,1092	54,9552
35,8299	0,1098	55,3098
36,4914	0,1084	54,9198
36,8479	0,1082	55,3452
37,6667	0,1079	54,9907
38,2287	0,1081	55,3452
38,7296	0,1076	54,9552
39,3397	0,1078	55,4161
39,8888	0,1071	54,9552
40,5471	0,1066	55,4516
40,9292	0,1060	54,9198
41,6903	0,1055	55,4516
42,2137	0,1057	54,9907
42,7821	0,1062	55,4516
43,3537	0,1055	54,9198
43,8803	0,1055	55,4516
44,4551	0,1052	54,9907
45,0363	0,1049	55,4516
45,5822	0,1045	54,9552
46,0606	0,1045	55,5579
46,7510	0,1043	55,1325
47,2841	0,1039	55,4516
47,7786	0,1033	55,0261
48,3470	0,1029	55,4870
48,9154	0,1029	55,0616
49,5094	0,1021	55,4870
49,7470	0,1028	54,9552
50,5370	0,1025	55,4161
51,1246	0,1019	55,0616
51,6802	0,1018	55,5225
52,1554	0,1007	54,9907
52,6949	0,1006	55,4870
53,2536	0,1005	55,0616
53,6646	0,1010	55,4870
54,2844	0,1001	55,0261
54,8913	0,0997	55,5579
55,3922	0,0987	54,9907
55,8803	0,0980	55,5934
56,4487	0,0989	55,0616
56,9336	0,0978	55,4870
57,3864	0,0975	55,1325
58,0189	0,0974	55,5934
58,3593	0,0970	55,1325
59,0594	0,0968	55,5934
59,5025	0,0956	55,0616
60,0420	0,0956	55,5225
60,5429	0,0949	55,2034
60,9860	0,0956	55,5225
61,4934	0,0942	55,0616
61,8498	0,0941	55,5934
62,5659	0,0935	55,2388
63,0219	0,0922	55,5225
63,5068	0,0918	54,9907
63,9564	0,0918	55,5934
64,4252	0,0908	55,2388
64,9518	0,0906	55,6998
65,2408	0,0899	55,2388
65,9216	0,0892	55,7352
66,3615	0,0888	55,2034
66,8207	0,0868	55,6998
67,2831	0,0857	55,2388
67,6684	0,0855	55,6998
68,1726	0,0849	55,2743
68,4520	0,0839	55,6289
69,0557	0,0826	55,2388
69,4474	0,0817	55,5934
69,8938	0,0800	55,1679
70,2759	0,0794	55,6998
70,6869	0,0780	55,1679
71,0883	0,0769	55,6289
71,4062	0,0751	55,1679
71,8879	0,0731	55,7352
72,1897	0,0722	55,2743
72,6200	0,0704	55,7352
72,9636	0,0686	55,2388
73,3329	0,0671	55,6998
73,6765	0,0653	55,1325
74,0008	0,0634	55,8061
74,3476	0,0611	55,3452
74,4311	0,0591	55,7352
74,9481	0,0567	55,2034
75,2178	0,0542	55,7707
75,5454	0,0527	55,2743
75,8183	0,0504	55,8061
75,9949	0,0477	55,3452
76,2807	0,0454	55,7707
76,3193	0,0433	55,3098
76,6982	0,0412	55,7707
76,9262	0,0385	55,3452
77,0707	0,0364	55,6998
77,2954	0,0341	55,4161
77,3886	0,0321	55,8061
77,6037	0,0307	55,4161
77,6390	0,0285	55,8416
77,9024	0,0272	55,3452
78,0212	0,0250	55,9479
78,1239	0,0229	55,4161
78,2556	0,0218	55,8770
78,3455	0,0197	55,3452
78,4739	0,0185	55,8770
78,4097	0,0171	55,4161
78,6184	0,0162	55,8770
78,5767	0,0152	55,3452
78,7469	0,0136	55,8770
78,8400	0,0121	55,3452
78,8625	0,0120	55,8770
78,9363	0,0108	55,2743
78,9267	0,0102	55,8770
78,9685	0,0090	55,3452
78,7790	0,0087	55,7707
79,0263	0,0075	55,2743
79,0648	0,0079	55,8061
79,1579	0,0070	55,3452

28.01.2016	09:55:30
V	I	G
[V]	[A]	[W/m²]
0,1702	0,1441	249,9221
0,5716	0,1439	250,4894
0,8413	0,1439	250,1703
1,1207	0,1434	250,3830
1,3840	0,1438	250,0285
1,6570	0,1440	250,1348
1,7886	0,1445	250,0285
2,0905	0,1443	250,4539
2,4212	0,1440	250,3121
2,7231	0,1440	250,2058
2,9382	0,1438	250,0285
3,2433	0,1440	250,0285
3,5290	0,1439	250,1348
3,5387	0,1438	250,4894
4,0653	0,1434	250,3830
4,3094	0,1433	250,3121
4,5984	0,1431	250,0285
4,8199	0,1427	249,9930
5,1089	0,1427	250,1348
5,3144	0,1429	250,4185
5,6034	0,1424	250,4185
5,8668	0,1427	250,2767
6,1397	0,1418	250,2767
6,4062	0,1418	250,1348
6,6567	0,1419	250,1348
6,9553	0,1414	250,5958
7,1480	0,1419	250,3121
7,4820	0,1423	250,4894
7,7035	0,1420	250,1348
7,9636	0,1419	250,1348
8,1948	0,1414	250,0639
8,4357	0,1413	250,5603
8,7086	0,1416	250,4894
8,9527	0,1418	250,4894
9,2192	0,1413	250,2767
9,5275	0,1419	250,1703
9,8100	0,1418	250,2412
10,0348	0,1409	250,4894
10,2949	0,1406	250,3830
10,4394	0,1403	250,2767
10,7959	0,1404	250,1348
11,0720	0,1406	250,0285
11,3000	0,1402	250,1703
11,5473	0,1401	250,5248
11,8363	0,1401	250,4185
12,0450	0,1403	250,5248
12,2698	0,1397	250,2412
12,5909	0,1402	250,1703
12,8574	0,1402	250,1348
13,1015	0,1401	250,5603
13,3712	0,1404	250,4894
13,6409	0,1403	250,4185
13,6377	0,1400	250,2412
14,0809	0,1397	250,1348
14,3667	0,1406	250,2412
14,5979	0,1396	250,7021
14,8162	0,1393	250,4894
15,1309	0,1395	250,4894
15,2915	0,1391	250,2412
15,6672	0,1395	250,1703
15,8791	0,1390	250,0639
16,1488	0,1390	250,5603
16,4282	0,1391	250,4539
16,6787	0,1384	250,4185
16,8681	0,1384	250,2058
17,1026	0,1387	250,1703
17,3851	0,1375	250,0639
17,6356	0,1384	250,5248
17,8989	0,1382	250,5603
18,0852	0,1386	250,4894
18,4352	0,1384	250,3121
18,6375	0,1385	250,2058
18,8912	0,1381	250,2412
19,1737	0,1379	250,5603
19,4114	0,1384	250,4539
19,5205	0,1384	250,4185
19,8706	0,1379	250,0639
20,1339	0,1381	250,2058
20,3169	0,1381	250,0639
20,5931	0,1376	250,5248
20,8885	0,1368	250,3830
21,1454	0,1366	250,4894
21,3445	0,1368	250,1348
21,5211	0,1363	250,1348
21,8583	0,1368	250,2058
22,0798	0,1365	250,5248
22,4138	0,1360	250,4539
22,6514	0,1360	250,3830
22,8344	0,1363	250,1348
23,1138	0,1364	250,1703
23,3354	0,1359	250,2058
23,4092	0,1366	250,6667
23,8749	0,1360	250,4539
24,0900	0,1357	250,4539
24,3373	0,1363	250,2412
24,5781	0,1360	250,2058
24,8510	0,1365	250,2058
25,0469	0,1359	250,5603
25,3070	0,1357	250,4539
25,5928	0,1351	250,4894
25,8401	0,1352	250,1703
26,1034	0,1347	250,1348
26,2864	0,1351	250,1348
26,5208	0,1347	250,4894
26,6525	0,1351	250,3121
27,0346	0,1346	250,2767
27,2177	0,1347	250,2058
27,4970	0,1341	250,0639
27,7379	0,1344	250,2412
28,0108	0,1341	250,6667
28,2516	0,1346	250,5248
28,4475	0,1342	250,4894
28,7397	0,1344	250,1703
28,9517	0,1347	250,1348
29,1058	0,1339	250,0639
29,4430	0,1344	250,5248
29,6421	0,1339	250,4185
29,7994	0,1337	250,4539
30,1205	0,1338	250,1703
30,4031	0,1342	250,2412
30,6086	0,1331	250,1703
30,8944	0,1331	250,7021
31,1706	0,1331	250,5248
31,3632	0,1328	250,4539
31,5270	0,1324	250,0639
31,8834	0,1332	250,0639
32,0825	0,1324	250,2058
32,2527	0,1322	250,4539
32,5738	0,1320	250,5248
32,8147	0,1320	250,3830
32,8404	0,1324	250,2412
33,2996	0,1321	250,1703
33,5147	0,1320	250,2058
33,7684	0,1330	250,4894
33,9578	0,1322	250,3830
34,2083	0,1324	250,4539
34,4042	0,1324	250,2412
34,6643	0,1319	250,1348
34,9148	0,1319	250,2767
35,1813	0,1324	250,5958
35,4029	0,1324	250,4539
35,6565	0,1319	250,4185
35,8524	0,1310	250,2058
36,0387	0,1309	250,1703
36,3951	0,1308	250,2767
36,5846	0,1308	250,7021
36,8415	0,1310	250,4894
37,0919	0,1300	250,5248
37,2910	0,1300	250,2412
37,4997	0,1300	250,1348
37,7053	0,1295	250,3121
37,9782	0,1301	250,6667
38,1773	0,1304	250,5603
38,4053	0,1301	250,5958
38,6975	0,1304	250,3830
38,9351	0,1299	250,2058
39,0475	0,1303	250,2767
39,3783	0,1301	250,7021
39,6159	0,1300	250,4894
39,8182	0,1297	250,5248
40,0687	0,1301	250,2767
40,1875	0,1293	250,1703
40,5343	0,1295	250,2412
40,6499	0,1289	250,5958
40,9292	0,1284	250,4894
41,2568	0,1287	250,4894
41,4783	0,1287	250,2767
41,6389	0,1282	250,0639
41,9054	0,1287	250,2767
41,9247	0,1284	250,4894
42,3678	0,1282	250,4894
42,5701	0,1281	250,3830
42,8206	0,1277	250,4185
43,0582	0,1278	250,0639
43,2637	0,1282	250,4539
43,5271	0,1287	250,5958
43,7326	0,1286	250,4539
43,9156	0,1282	250,4185
44,1982	0,1276	250,2767
44,3941	0,1276	250,0639
44,4647	0,1272	250,2412
44,8404	0,1278	250,7376
44,9945	0,1272	250,4539
45,3510	0,1274	250,4894
45,5372	0,1271	250,3121
45,7395	0,1267	250,1348
46,0157	0,1262	250,2412
46,1859	0,1263	250,4539
46,4267	0,1267	250,5248
46,6611	0,1262	250,3121
46,8538	0,1256	250,2058
47,1203	0,1259	250,1703
47,3515	0,1257	250,4185
47,5378	0,1259	250,7021
47,7818	0,1259	250,5248
47,9135	0,1256	250,5958
48,2410	0,1257	250,3830
48,4883	0,1255	250,2058
48,6809	0,1260	250,4185
48,8640	0,1256	250,5958
49,1337	0,1250	250,6667
49,2911	0,1256	250,4894
49,4869	0,1249	250,2412
49,7727	0,1241	250,1703
49,9943	0,1244	250,2412
50,1838	0,1238	250,5958
50,4150	0,1239	250,4894
50,5434	0,1236	250,5958
50,6751	0,1238	250,3121
51,1246	0,1238	250,1703
51,3558	0,1234	250,3121
51,5324	0,1232	250,5958
51,7412	0,1230	250,5958
52,0173	0,1228	250,4894
52,1907	0,1230	250,4539
52,4123	0,1235	250,0639
52,6403	0,1235	250,3830
52,8843	0,1228	250,6667
53,1059	0,1234	250,4894
53,2857	0,1230	250,4894
53,5458	0,1227	250,2767
53,6967	0,1230	250,2058
53,9408	0,1221	250,3830
54,1559	0,1229	250,6667
54,3904	0,1218	250,5248
54,4449	0,1217	250,4894
54,7693	0,1213	250,2058
54,9780	0,1211	250,0639
55,1899	0,1211	250,3830
55,4083	0,1213	250,5958
55,6363	0,1205	250,5248
55,9124	0,1207	250,4539
56,0345	0,1202	250,1703
56,2689	0,1201	250,0639
56,4166	0,1200	250,2767
56,6767	0,1198	250,5603
56,9464	0,1203	250,5603
57,1487	0,1198	250,4894
57,3318	0,1198	250,3121
57,5822	0,1191	250,0639
57,7653	0,1192	250,4185
57,8744	0,1192	250,5603
58,1859	0,1186	250,4894
58,4075	0,1191	250,5248
58,6002	0,1192	250,3830
58,8603	0,1189	250,1703
59,0337	0,1181	250,2058
59,0658	0,1184	250,4539
59,4929	0,1179	250,4894
59,6727	0,1179	250,4185
59,8814	0,1176	250,1348
60,0548	0,1174	250,0285
60,2475	0,1167	250,1703
60,4819	0,1173	250,4539
60,5911	0,1163	250,4185
60,8897	0,1162	250,4539
61,0727	0,1160	250,2767
61,2718	0,1164	250,1703
61,4966	0,1157	250,2767
61,6443	0,1160	250,5603
61,8049	0,1163	250,5248
62,1453	0,1155	250,4894
62,3026	0,1155	250,2412
62,5370	0,1154	250,1348
62,7169	0,1149	250,4185
62,9256	0,1146	250,5958
63,1728	0,1142	250,5603
63,2692	0,1144	250,4185
63,5614	0,1137	250,3121
63,7541	0,1131	250,1703
63,9339	0,1135	250,2767
64,1137	0,1127	250,5603
64,2421	0,1125	250,3830
64,4252	0,1127	250,2767
64,7431	0,1117	250,2767
64,9069	0,1119	250,0639
65,1220	0,1113	250,2767
65,3147	0,1115	250,5248
65,4881	0,1113	250,4539
65,6647	0,1111	250,4539
65,7996	0,1105	250,2412
66,1078	0,1103	250,0639
66,2876	0,1100	250,3830
66,4289	0,1097	250,5248
66,6537	0,1093	250,5248
66,8496	0,1089	250,3830
66,8014	0,1088	250,2767
67,1996	0,1086	250,0639
67,3859	0,1081	250,2767
67,5593	0,1072	250,5603
67,7840	0,1072	250,4894
67,8868	0,1065	250,4539
68,1469	0,1061	250,2767
68,2914	0,1056	250,0285
68,4616	0,1048	250,3121
68,6928	0,1043	250,5248
68,7827	0,1037	250,4185
69,0557	0,1041	250,3121
69,2226	0,1035	250,2412
69,3511	0,1034	249,9930
69,6080	0,1021	250,3830
69,7171	0,1025	250,5248
69,9194	0,1014	250,4894
70,1153	0,1012	250,4894
70,2855	0,1006	250,3121
70,4557	0,1010	250,1703
70,6163	0,0994	250,3830
70,8025	0,0997	250,6667
71,0177	0,0981	250,4894
71,1975	0,0975	250,4185
71,3613	0,0969	250,2058
71,5218	0,0960	249,9576
71,5507	0,0960	250,2767
71,8526	0,0954	250,4539
72,0131	0,0943	250,4894
72,1319	0,0931	250,2058
72,3182	0,0929	250,2058
72,4691	0,0920	250,0285
72,6104	0,0919	250,3121
72,6329	0,0909	250,4894
72,9251	0,0904	250,4539
73,0824	0,0895	250,4539
73,2269	0,0887	250,2767
73,3939	0,0878	250,0285
73,5705	0,0872	250,5248
73,5063	0,0867	250,5958
73,8788	0,0860	250,5248
74,0137	0,0849	250,3830
74,1646	0,0834	250,3121
74,3059	0,0826	249,9576
74,4215	0,0817	250,4185
74,5018	0,0801	250,5603
74,6495	0,0797	250,5248
74,8068	0,0780	250,3830
74,9513	0,0775	250,2767
75,1279	0,0767	250,0639
75,2435	0,0748	250,4894
75,3912	0,0742	250,5958
75,4137	0,0730	250,5958
75,6192	0,0725	250,4894
75,7573	0,0711	250,3830
75,9082	0,0704	250,1703
75,9821	0,0698	250,4185
76,1170	0,0684	250,6667
76,2261	0,0669	250,6667
76,2004	0,0661	250,4894
76,4252	0,0650	250,3121
76,5119	0,0638	250,1703
76,6275	0,0628	250,4539
76,7463	0,0611	250,6667
76,7945	0,0601	250,5603
76,8202	0,0592	250,5248
76,9904	0,0578	250,3830
77,1509	0,0565	250,1703
77,2601	0,0548	250,4185
77,3115	0,0541	250,6667
77,3982	0,0523	250,5958
77,5010	0,0519	250,5248
77,4624	0,0504	250,4539
77,7129	0,0494	250,2058
77,7739	0,0483	250,5248
77,8510	0,0475	250,7021
77,9569	0,0464	250,6667
77,9955	0,0455	250,4185
77,8574	0,0443	250,3121
78,1689	0,0432	250,1348
78,2363	0,0421	250,3830
78,2813	0,0415	250,6667
78,3102	0,0394	250,5603
78,4161	0,0393	250,4894
78,4739	0,0377	250,3121
78,4868	0,0363	250,0639
78,5221	0,0354	250,4185
78,6281	0,0343	250,7021
78,7308	0,0341	250,7021
78,7405	0,0329	250,5958
78,7597	0,0321	250,3830
78,8207	0,0312	250,2767
78,9396	0,0307	250,4894
78,9974	0,0298	250,5958
79,0070	0,0291	250,5603
79,0808	0,0277	250,4185
79,1097	0,0266	250,3121
79,1322	0,0263	250,1348
79,1065	0,0254	250,4894
79,2542	0,0249	250,7021
79,2093	0,0243	250,5958
79,3056	0,0237	250,5248
79,3795	0,0226	250,4185
79,4052	0,0226	250,1703
79,3570	0,0216	250,4894
79,3281	0,0206	250,5248
79,4565	0,0200	250,5603
79,5176	0,0193	250,4185
79,4887	0,0184	250,3121
79,5497	0,0179	250,2058
79,5786	0,0177	250,4894
79,3763	0,0173	250,6667
79,6685	0,0157	250,7021
79,7038	0,0158	250,4539
79,7263	0,0156	250,4539
79,7520	0,0148	250,1348
79,7391	0,0145	250,5248
79,7391	0,0148	250,5958
79,8001	0,0137	250,5603
79,8194	0,0129	250,4539
79,8162	0,0130	250,3830
79,8387	0,0125	250,1703
79,8162	0,0120	250,4185
79,8483	0,0115	250,7021
79,8098	0,0117	250,7021
79,9607	0,0112	250,5248
79,9671	0,0103	250,4185
79,9607	0,0103	250,1703
79,9960	0,0108	250,4894
79,9703	0,0099	250,5248
79,9864	0,0096	250,6667
79,9832	0,0082	250,4185
79,9607	0,0087	250,3121
80,0378	0,0080	250,0639

28.01.2016	10:00:30
V	I	G
[V]	[A]	[W/m²]
1,2299	0,5451	268,2523
2,2125	0,5454	268,2878
3,2689	0,5445	267,9687
3,9497	0,5444	268,4651
5,2342	0,5441	268,3232
6,2682	0,5438	268,4651
7,1833	0,5432	268,0751
8,1981	0,5422	268,3232
9,2096	0,5419	267,7914
9,9385	0,5421	268,4296
11,1908	0,5407	268,2523
12,1156	0,5403	268,5005
13,1368	0,5405	268,0396
14,1483	0,5394	268,2878
15,0410	0,5392	267,7914
15,8598	0,5390	268,5714
17,0608	0,5375	268,3942
18,0242	0,5374	268,6069
19,0164	0,5368	268,1814
19,9701	0,5359	268,3232
20,9752	0,5353	268,0042
21,8101	0,5352	268,5714
22,8987	0,5349	268,4651
23,8588	0,5342	268,5714
24,8286	0,5335	268,2523
25,7598	0,5332	268,4296
26,7745	0,5327	267,9687
27,6447	0,5321	268,5714
28,6370	0,5316	268,4651
29,6292	0,5311	268,6069
30,5797	0,5311	268,2169
31,5623	0,5304	268,2523
32,4807	0,5288	267,8978
33,3285	0,5293	268,4651
34,3978	0,5283	268,2878
35,2776	0,5277	268,5360
36,2859	0,5265	268,1460
37,1947	0,5267	268,2878
38,0970	0,5255	267,8978
39,1310	0,5250	268,5714
40,0076	0,5241	268,2523
40,9100	0,5234	268,5714
41,8733	0,5227	268,1814
42,7981	0,5222	268,4651
43,7197	0,5214	267,8978
44,6285	0,5203	268,5360
45,5758	0,5203	268,2878
46,5295	0,5191	268,6778
47,4736	0,5185	268,2169
48,3727	0,5183	268,4296
49,3232	0,5175	268,0042
50,2255	0,5160	268,6069
50,9962	0,5157	268,2878
52,0494	0,5141	268,4651
52,9132	0,5136	268,1460
53,8894	0,5121	268,2523
54,7468	0,5116	267,8623
55,6523	0,5108	268,5360
56,5450	0,5099	268,2523
57,4923	0,5083	268,6069
58,3529	0,5073	268,1814
59,2745	0,5056	268,4651
60,1897	0,5040	268,0042
61,0824	0,5028	268,5714
61,9076	0,5013	268,4296
62,8549	0,5005	268,5005
63,7284	0,4991	268,2878
64,5408	0,4974	268,4296
65,4656	0,4949	267,9687
66,3615	0,4935	268,6778
67,0904	0,4913	268,2523
68,0795	0,4889	268,6778
68,9400	0,4856	268,0751
69,7364	0,4828	268,3232
70,5745	0,4795	267,9332
71,3837	0,4756	268,5714
72,1544	0,4710	268,2169
72,9989	0,4660	268,5714
73,8370	0,4590	268,1460
74,5274	0,4523	268,3942
75,3784	0,4448	267,8978
76,1876	0,4350	268,6778
76,8587	0,4238	268,2878
77,6101	0,4110	268,5714
78,3551	0,3969	268,2878
79,0487	0,3815	268,3232
79,6332	0,3643	268,0042
80,2304	0,3453	268,5714
80,7635	0,3259	268,4651
81,3511	0,3062	268,6069
81,8553	0,2845	268,2169
82,3273	0,2631	268,2878
82,6870	0,2429	268,0396
83,0819	0,2214	268,5714
83,4255	0,2017	268,3942
83,7370	0,1834	268,4651
83,9521	0,1645	268,1460
84,2187	0,1476	268,3942
84,4756	0,1332	267,9332
84,6136	0,1192	268,5714
84,7003	0,1063	268,3942
84,9540	0,0947	268,5360
85,0921	0,0846	268,2523
85,2302	0,0754	268,3942
85,3426	0,0671	268,0042
85,4164	0,0605	268,7132
85,4903	0,0543	268,5005
85,5995	0,0483	268,5360
85,5930	0,0439	268,2523
85,6733	0,0399	268,4296
85,7504	0,0363	267,9687
85,8210	0,0329	268,6778
85,8018	0,0304	268,5005
85,8435	0,0275	268,5714
85,8853	0,0254	268,2523
85,9398	0,0238	268,4296
85,9591	0,0217	267,9687
85,9720	0,0200	268,6069
85,9655	0,0185	268,3232
85,9431	0,0172	268,5360
86,0426	0,0157	268,1460
85,9912	0,0152	268,3232
86,0073	0,0146	267,8623
86,0426	0,0136	268,5360
86,0587	0,0132	268,4296
85,9752	0,0124	268,4296
86,0683	0,0117	268,1814
86,0651	0,0112	268,2878
86,0587	0,0108	267,9687
86,0554	0,0105	268,6069
86,0747	0,0098	268,3232
85,9976	0,0096	268,6069
86,0490	0,0092	268,2523
86,1421	0,0091	268,4651
86,1550	0,0091	268,0042

28.01.2016	10:05:38
V	I	G
[V]	[A]	[W/m²]
1,6024	0,7280	206,0998
2,9382	0,7274	206,2061
4,2901	0,7260	205,8516
5,5970	0,7251	206,3834
6,8622	0,7252	206,3834
8,2880	0,7238	206,3125
9,5821	0,7233	206,1352
10,9243	0,7225	206,1707
12,2601	0,7220	205,7452
13,5221	0,7211	206,4898
14,8323	0,7203	206,1707
16,1488	0,7195	206,3834
17,4494	0,7194	206,1352
18,7595	0,7188	206,1707
20,1050	0,7178	205,8516
21,3959	0,7172	206,4898
22,7060	0,7157	206,3125
23,9840	0,7157	206,3834
25,3295	0,7148	206,1707
26,6236	0,7133	206,3125
27,8920	0,7129	206,0998
28,9838	0,7119	206,5961
30,4545	0,7106	206,3834
31,7004	0,7094	206,5607
32,9720	0,7085	206,1707
34,2501	0,7081	206,2061
35,5217	0,7069	205,9579
36,6263	0,7054	206,6316
38,0328	0,7042	206,4189
39,2980	0,7032	206,5607
40,6145	0,7026	206,2061
41,8541	0,7018	206,2770
43,0679	0,7005	206,0289
44,2431	0,7002	206,6670
45,5822	0,6983	206,3125
46,8538	0,6973	206,5961
48,0837	0,6959	206,2061
49,3521	0,6945	206,3479
50,4439	0,6939	206,1352
51,8022	0,6917	206,7025
52,9935	0,6901	206,5607
54,2330	0,6885	206,6670
55,4436	0,6861	206,2770
56,6189	0,6842	206,3479
57,7460	0,6824	206,0998
59,0658	0,6802	206,7025
60,2250	0,6789	206,4543
61,4709	0,6764	206,5607
62,6141	0,6735	206,3479
63,8825	0,6708	206,3479
65,0000	0,6674	206,0643
66,2491	0,6651	206,6670
67,3698	0,6613	206,4543
68,5354	0,6570	206,5607
69,7011	0,6526	206,3479
70,8346	0,6462	206,3834
71,9489	0,6386	206,2061
73,0375	0,6296	206,7380
74,1517	0,6176	206,5607
75,2114	0,6045	206,6670
76,2518	0,5872	206,4189
77,1798	0,5667	206,3479
78,1753	0,5422	206,3479
79,0969	0,5140	206,8443
79,9382	0,4828	206,6316
80,7282	0,4487	206,7025
81,4282	0,4117	206,4898
82,0319	0,3754	206,4898
82,6805	0,3379	206,1707
83,2072	0,3016	206,8089
83,6664	0,2670	206,6316
84,0870	0,2342	206,7025
84,3696	0,2053	206,3834
84,6072	0,1796	206,4543
84,9283	0,1550	206,1707
85,1499	0,1349	206,8443
85,3169	0,1168	206,5961
85,5031	0,1010	206,7025
85,4710	0,0883	206,4543
85,7215	0,0767	206,3834
85,8628	0,0667	206,2061
85,9366	0,0588	206,8798
86,0073	0,0519	206,5607
86,0940	0,0455	206,7380
85,8917	0,0406	206,4543
86,1614	0,0363	206,5607
86,2417	0,0328	206,1707
86,2738	0,0291	206,9152
86,2096	0,0264	206,7380
86,3155	0,0238	206,8443
86,1935	0,0224	206,6316
86,3766	0,0207	206,5607
86,3316	0,0188	206,3834
86,3509	0,0174	206,9152
86,3701	0,0169	206,7025
86,3477	0,0158	206,8798
86,3155	0,0155	206,5961
86,4023	0,0140	206,6316
86,3862	0,0137	206,4189
86,3830	0,0129	206,8443
86,3990	0,0121	206,8089
86,0554	0,0120	206,8798
86,4087	0,0115	206,6670
86,4247	0,0117	206,7025
86,4697	0,0109	206,3834
86,4697	0,0101	206,9507
86,4729	0,0101	206,8089
86,3155	0,0092	206,8798
86,4312	0,0090	206,5961
86,5114	0,0087	206,7380
86,5179	0,0092	206,3834
86,4825	0,0090	207,0925

28.01.2016	10:10:30
V	I	G
[V]	[A]	[W/m²]
1,6634	0,7803	294,9145
3,1758	0,7793	294,5599
4,6016	0,7783	294,5954
5,9470	0,7779	294,5954
7,4402	0,7771	294,9145
8,8788	0,7761	294,8436
10,1119	0,7754	294,9499
11,7753	0,7744	294,5599
13,0405	0,7735	294,5954
14,5625	0,7727	294,4181
15,9176	0,7714	294,9499
17,3209	0,7704	294,8081
18,7691	0,7698	294,9145
20,1949	0,7686	294,5954
21,5468	0,7684	294,5599
22,9629	0,7665	294,4181
24,3276	0,7660	294,9145
25,7020	0,7643	294,8436
27,1021	0,7637	294,9145
28,2452	0,7635	294,5245
29,8990	0,7626	294,6308
31,2123	0,7614	294,4181
32,5514	0,7608	295,0918
33,9322	0,7592	294,8790
35,2680	0,7589	295,0208
36,6327	0,7567	294,7017
38,0424	0,7556	294,5954
39,3622	0,7554	294,5954
40,7205	0,7532	295,0563
42,0756	0,7518	294,9499
43,3472	0,7506	294,9145
44,7955	0,7490	294,7727
46,1120	0,7478	294,7017
47,3258	0,7462	294,4890
48,7676	0,7444	295,0208
50,0906	0,7435	295,0563
51,4554	0,7406	295,0208
52,7719	0,7393	294,6663
54,0179	0,7377	294,6308
55,3698	0,7350	294,5245
56,6414	0,7339	295,0918
57,8584	0,7319	294,9145
59,2874	0,7296	294,9499
60,5622	0,7275	294,6663
61,8017	0,7252	294,6308
63,0765	0,7219	294,6663
64,3577	0,7188	295,1272
65,6454	0,7154	294,9499
66,8143	0,7118	294,9145
68,1148	0,7057	294,7017
69,3639	0,7000	294,8081
70,4782	0,6927	294,5954
71,6984	0,6842	295,1627
72,9508	0,6726	294,9145
74,0907	0,6586	295,0208
75,2756	0,6408	294,8790
76,3482	0,6201	294,6663
77,3500	0,5949	294,7727
78,3519	0,5636	295,0563
79,2767	0,5289	295,0208
80,2369	0,4909	295,0918
80,9947	0,4504	294,9145
81,6819	0,4082	294,8081
82,2727	0,3660	294,6663
82,8507	0,3244	295,1627
83,3324	0,2847	295,0918
83,8430	0,2489	295,1272
84,1833	0,2155	294,8436
84,4467	0,1866	294,8081
84,5976	0,1598	294,8081
84,9637	0,1378	295,2336
85,1756	0,1185	295,1272
85,3073	0,1023	295,0563
85,4485	0,0873	294,7727
85,4903	0,0754	294,8081
85,6348	0,0654	294,7017
85,7921	0,0574	295,1981
85,7921	0,0505	294,9145
85,7953	0,0440	294,9499
85,6476	0,0393	294,7727
85,9816	0,0348	294,7727
86,0105	0,0312	294,7017
86,0233	0,0283	295,0563
85,9752	0,0258	294,8790
86,0587	0,0238	294,9145
85,9045	0,0218	294,8081
86,1165	0,0209	294,8081
86,1325	0,0191	294,7727
86,1068	0,0182	295,0918
86,0843	0,0171	295,0918
85,9720	0,0164	295,1627
86,1582	0,0157	294,8436
86,1999	0,0146	294,7727
86,1999	0,0135	294,8436
86,2160	0,0128	295,2336
86,2128	0,0124	295,1272
86,1454	0,0114	295,1272
86,2192	0,0117	295,0208
86,2449	0,0115	294,8790
86,2032	0,0107	294,8081
86,2192	0,0101	295,1627
86,1454	0,0098	295,0208
86,2577	0,0098	295,1627
86,2674	0,0099	295,0208
86,2866	0,0092	294,8436
86,2931	0,0093	294,8790

28.01.2016	10:15:13
V	I	G
[V]	[A]	[W/m²]
