
14.12.2015	14:33:12
V	I	G
[V]	[A]	[W/m²]
0,3853	0,4599	74,3845
0,6326	0,4595	74,3845
0,9055	0,4597	74,3845
1,1464	0,4589	74,4554
1,4386	0,4597	74,3845
1,7148	0,4590	74,3845
1,9460	0,4596	74,3845
2,2125	0,4585	74,4200
2,4694	0,4599	74,4554
2,7359	0,4594	74,4200
3,0153	0,4595	74,3845
3,2561	0,4588	74,3491
3,5066	0,4589	74,3845
3,7024	0,4589	74,3845
3,9882	0,4594	74,5264
4,2869	0,4591	74,3491
4,5213	0,4595	74,3845
4,7878	0,4589	74,3845
5,0319	0,4589	74,3845
5,2759	0,4591	74,4200
5,5456	0,4594	74,4200
5,8186	0,4596	74,4200
6,0626	0,4586	74,3845
6,2682	0,4585	74,3845
6,5507	0,4586	74,4200
6,7884	0,4586	74,4200
7,0613	0,4584	74,3845
7,3375	0,4585	74,3491
7,5655	0,4577	74,3491
7,8223	0,4579	74,3845
8,0503	0,4580	74,3845
8,3361	0,4580	74,4554
8,5930	0,4578	74,4200
8,8146	0,4580	74,3845
9,0940	0,4578	74,3845
9,3187	0,4581	74,3845
9,5628	0,4575	74,3845
9,8550	0,4577	74,3845
10,1087	0,4578	74,3491
10,3559	0,4579	74,3845
10,5807	0,4578	74,3491
10,8248	0,4577	74,3845
11,0913	0,4577	74,4200
11,3385	0,4577	74,4200
11,6211	0,4573	74,4200
11,8395	0,4579	74,3845
12,0900	0,4577	74,3845
12,3468	0,4581	74,4200
12,6294	0,4577	74,4200
12,8831	0,4573	74,3845
13,1368	0,4572	74,3491
13,3808	0,4579	74,3845
13,6217	0,4578	74,4200
13,8529	0,4579	74,4200
14,1419	0,4572	74,4200
14,4020	0,4572	74,3845
14,6235	0,4575	74,3845
14,8869	0,4573	74,4200
15,1373	0,4575	74,4554
15,4071	0,4573	74,4200
15,6607	0,4570	74,3845
15,9080	0,4570	74,3845
16,1360	0,4572	74,3845
16,3576	0,4568	74,4200
16,6498	0,4573	74,4200
16,9131	0,4569	74,4200
17,1250	0,4567	74,3845
17,4076	0,4566	74,3845
17,6484	0,4573	74,4200
17,8925	0,4569	74,3845
18,1462	0,4569	74,3491
18,4031	0,4563	74,3491
18,6728	0,4567	74,3491
18,8687	0,4569	74,3491
19,1481	0,4569	74,3491
19,3857	0,4567	74,3845
19,5976	0,4569	74,4200
19,9059	0,4561	74,4554
20,1692	0,4568	74,3845
20,4068	0,4563	74,3845
20,6348	0,4567	74,3845
20,8821	0,4568	74,4200
21,1293	0,4566	74,4200
21,3605	0,4567	74,4554
21,6624	0,4568	74,3845
21,9128	0,4567	74,3491
22,1055	0,4567	74,3136
22,3624	0,4563	74,3136
22,6289	0,4566	74,3845
22,9019	0,4566	74,4200
23,1395	0,4568	74,4200
23,3771	0,4568	74,4200
23,6148	0,4567	74,4200
23,8395	0,4572	74,4554
24,1478	0,4562	74,3845
24,3790	0,4566	74,3136
24,5974	0,4563	74,2782
24,8446	0,4568	74,2782
25,1111	0,4563	74,4200
25,3745	0,4563	74,3845
25,6314	0,4563	74,3845
25,8658	0,4561	74,3491
26,1002	0,4559	74,3845
26,3314	0,4570	74,4554
26,6043	0,4566	74,3845
26,8644	0,4562	74,3491
27,0732	0,4566	74,3136
27,3300	0,4567	74,3491
27,5901	0,4558	74,3491
27,8406	0,4557	74,3845
28,1168	0,4554	74,3491
28,3640	0,4562	74,3491
28,5792	0,4561	74,3845
28,7783	0,4559	74,3845
29,0544	0,4552	74,4200
29,3434	0,4554	74,4200
29,5811	0,4557	74,3491
29,8315	0,4550	74,3845
30,0692	0,4553	74,3491
30,2907	0,4547	74,3845
30,5733	0,4550	74,3845
30,8302	0,4543	74,3136
31,0646	0,4547	74,3491
31,2862	0,4545	74,3845
31,5431	0,4541	74,4200
31,8032	0,4541	74,4554
32,0344	0,4532	74,4554
32,2913	0,4535	74,4554
32,5321	0,4534	74,3845
32,7440	0,4534	74,3845
33,0170	0,4526	74,3845
33,2835	0,4524	74,3491
33,5436	0,4521	74,2782
33,7459	0,4521	74,3136
33,9996	0,4515	74,3136
34,2340	0,4514	74,3845
34,4877	0,4512	74,3845
34,7638	0,4504	74,4200
34,9822	0,4504	74,3845
35,2038	0,4498	74,3845
35,4446	0,4496	74,4200
35,7047	0,4486	74,4200
35,9584	0,4487	74,3845
36,1767	0,4481	74,3491
36,4144	0,4472	74,3136
36,6616	0,4465	74,3845
36,9025	0,4460	74,4200
37,1626	0,4450	74,3845
37,3681	0,4456	74,3491
37,6378	0,4442	74,3491
37,8498	0,4436	74,3491
38,0938	0,4420	74,3845
38,3539	0,4415	74,3845
38,5755	0,4407	74,3845
38,8356	0,4395	74,3845
39,0636	0,4385	74,3491
39,2723	0,4378	74,3491
39,5260	0,4359	74,3845
39,7508	0,4340	74,3491
40,0269	0,4334	74,3491
40,2485	0,4315	74,3491
40,4572	0,4297	74,3491
40,6756	0,4281	74,3845
40,8843	0,4260	74,4200
41,1572	0,4238	74,3491
41,3884	0,4222	74,3136
41,6036	0,4194	74,3136
41,8187	0,4175	74,2782
42,0210	0,4139	74,3491
42,2490	0,4104	74,3491
42,4899	0,4075	74,3845
42,7243	0,4047	74,3491
42,9330	0,4007	74,3491
43,0968	0,3973	74,3491
43,3312	0,3929	74,3845
43,5399	0,3885	74,4200
43,7454	0,3836	74,3845
43,9638	0,3790	74,3491
44,1661	0,3734	74,2782
44,3331	0,3685	74,3491
44,5000	0,3626	74,3491
44,7055	0,3571	74,4200
44,9335	0,3502	74,4200
45,0748	0,3443	74,4200
45,2836	0,3363	74,4200
45,4602	0,3297	74,3845
45,6047	0,3221	74,3845
45,7877	0,3152	74,3845
45,9707	0,3071	74,3491
46,1184	0,2991	74,2782
46,2565	0,2902	74,2782
46,3914	0,2824	74,2782
46,5327	0,2737	74,3491
46,6868	0,2648	74,3845
46,8217	0,2559	74,3845
46,9662	0,2461	74,4200
47,0754	0,2372	74,4200
47,1749	0,2293	74,4554
47,3066	0,2201	74,4554
47,4286	0,2102	74,4200
47,5410	0,2017	74,3136
47,6502	0,1923	74,2782
47,7176	0,1844	74,3136
47,7658	0,1753	74,3136
47,8782	0,1674	74,3845
47,9841	0,1579	74,3845
48,0548	0,1510	74,3845
48,1415	0,1430	74,3491
48,1800	0,1363	74,3491
48,2442	0,1286	74,3136
48,3213	0,1219	74,3845
48,3791	0,1149	74,3136
48,4369	0,1086	74,3136
48,4530	0,1030	74,3136
48,5140	0,0973	74,3136
48,5589	0,0913	74,3491
48,6199	0,0860	74,3491
48,6681	0,0805	74,3845
48,6713	0,0770	74,3845
48,6938	0,0718	74,3845
48,7195	0,0672	74,4554
48,7837	0,0632	74,4554
48,8319	0,0591	74,3845
48,7869	0,0561	74,3491
48,8576	0,0527	74,3136
48,8768	0,0494	74,3491
48,8897	0,0466	74,3136
48,9475	0,0443	74,3491
48,9507	0,0411	74,3136
48,9250	0,0393	74,3136
48,9443	0,0377	74,3491
48,9732	0,0351	74,3845
49,0085	0,0325	74,3845
49,0181	0,0313	74,3491
49,0085	0,0287	74,3845
49,0277	0,0277	74,3491
48,9988	0,0264	74,3491
49,0502	0,0250	74,3491
49,0599	0,0229	74,3491
49,0855	0,0222	74,3136
49,0791	0,0212	74,3136
49,0823	0,0201	74,3136
49,0727	0,0191	74,3491
49,0727	0,0183	74,3845
49,0920	0,0171	74,3845
49,1273	0,0162	74,3491
49,1209	0,0155	74,3845
49,1177	0,0146	74,3491
49,1080	0,0148	74,4200
49,1144	0,0135	74,3845
49,1241	0,0132	74,3845
49,1562	0,0132	74,3491
49,1530	0,0118	74,3491
49,1177	0,0114	74,3136
49,1177	0,0110	74,3136
49,1016	0,0105	74,3136
49,1433	0,0105	74,3136
49,1562	0,0103	74,2782
49,1466	0,0096	74,2782
49,1273	0,0093	74,3491
49,1305	0,0093	74,3845
49,1722	0,0081	74,3845
49,1755	0,0083	74,3491

14.12.2015	14:35:12
V	I	G
[V]	[A]	[W/m²]
0,3051	0,3817	62,0107
0,5138	0,3815	62,0817
0,7771	0,3816	62,0107
1,0019	0,3819	62,0462
1,2074	0,3820	62,0462
1,3968	0,3816	62,0462
1,6248	0,3823	62,0817
1,8304	0,3809	62,0462
1,9941	0,3815	62,0462
2,2928	0,3814	62,0462
2,5240	0,3814	62,0107
2,7006	0,3816	62,0107
2,9061	0,3811	62,0817
3,1180	0,3811	62,0462
3,3332	0,3811	62,1526
3,5098	0,3816	62,0462
3,7891	0,3811	62,0817
3,9947	0,3811	61,9753
4,1713	0,3811	62,0107
4,3993	0,3816	61,9753
4,5951	0,3815	62,0107
4,8135	0,3817	62,0462
5,0351	0,3807	62,0817
5,2727	0,3810	62,0817
5,4589	0,3811	62,0107
5,6356	0,3815	62,0107
5,8892	0,3811	62,0462
6,0883	0,3814	62,0817
6,2682	0,3815	62,0817
6,5154	0,3811	62,0817
6,7402	0,3809	62,0462
6,9553	0,3814	62,0462
7,1287	0,3816	62,0462
7,3471	0,3811	62,0462
7,5462	0,3805	62,0107
7,7421	0,3810	62,0462
7,9701	0,3816	62,0462
8,2205	0,3810	62,0462
8,4068	0,3815	62,0107
8,6059	0,3814	62,0107
8,8210	0,3810	62,0462
9,0265	0,3810	62,0462
9,2224	0,3814	62,0462
9,4697	0,3806	62,0462
9,6591	0,3806	62,0462
9,8743	0,3807	62,0107
10,0734	0,3815	62,0817
10,2853	0,3815	62,0817
10,4555	0,3814	62,0817
10,6771	0,3809	62,1526
10,9628	0,3816	62,0462
11,1459	0,3807	62,0462
11,3096	0,3814	62,0107
11,5409	0,3811	62,0462
11,7528	0,3817	62,0462
11,9615	0,3805	62,0817
12,1670	0,3809	62,0462
12,4239	0,3807	62,0462
12,6102	0,3811	61,9753
12,7739	0,3809	61,9753
13,0051	0,3814	61,9753
13,2042	0,3807	62,0107
13,4418	0,3815	62,0462
13,6634	0,3809	62,0462
13,8561	0,3806	62,0107
14,0873	0,3805	62,0817
14,2446	0,3815	62,0817
14,4887	0,3805	62,0817
14,6814	0,3816	62,0817
14,8869	0,3805	62,1526
15,1277	0,3809	62,1526
15,3461	0,3800	62,0462
15,5516	0,3806	62,0462
15,7314	0,3807	62,0107
15,9465	0,3805	62,0107
16,1521	0,3806	62,0107
16,3576	0,3805	62,0107
16,5823	0,3799	61,9753
16,7911	0,3796	62,0107
16,9870	0,3806	62,0107
17,1828	0,3805	62,0817
17,3819	0,3810	62,0817
17,6067	0,3804	62,0817
17,8154	0,3807	62,0107
18,0434	0,3799	61,9753
18,2489	0,3805	61,9753
18,4127	0,3801	61,9753
18,6471	0,3804	62,0107
18,8430	0,3800	62,0107
19,0421	0,3804	62,0817
19,2604	0,3806	62,1526
19,5013	0,3800	62,0817
19,7068	0,3798	62,0817
19,8962	0,3800	62,1526
20,0985	0,3795	62,0817
20,2976	0,3801	62,0107
20,5032	0,3801	62,0107
20,7311	0,3807	62,0462
20,9463	0,3796	62,0107
21,1646	0,3801	61,9753
21,3605	0,3798	62,0107
21,5564	0,3806	62,0107
21,7427	0,3804	62,0462
21,9450	0,3800	62,0462
22,1729	0,3798	62,0462
22,3945	0,3801	62,0817
22,6097	0,3804	62,0462
22,8023	0,3804	62,0107
23,0046	0,3800	62,0107
23,2005	0,3801	62,0462
23,3803	0,3800	62,0817
23,6212	0,3799	62,1526
23,8427	0,3796	62,0817
24,0707	0,3799	62,0817
24,2762	0,3800	62,0462
24,4818	0,3796	62,0817
24,6648	0,3801	62,0462
24,8286	0,3796	62,0817
25,0566	0,3804	62,0462
25,2749	0,3798	62,0107
25,4997	0,3793	61,9753
25,7213	0,3796	61,9753
25,9236	0,3804	61,9753
26,1034	0,3800	62,0107
26,2928	0,3801	62,0817
26,4984	0,3796	62,1526
26,6750	0,3796	62,2235
26,9287	0,3801	62,1526
27,1534	0,3798	62,0817
27,3718	0,3792	62,0107
27,5580	0,3799	62,0107
27,7443	0,3799	61,9753
27,9498	0,3790	61,9753
28,1457	0,3796	62,0107
28,3351	0,3799	62,0462
28,5856	0,3790	62,0462
28,7911	0,3789	62,0817
28,9902	0,3792	62,0462
29,1989	0,3792	62,0817
29,3852	0,3789	62,0462
29,5907	0,3789	62,0462
29,8123	0,3787	62,0817
30,0306	0,3785	62,0462
30,2393	0,3785	62,0107
30,4095	0,3787	62,0107
30,6311	0,3782	62,0462
30,8302	0,3779	62,0462
31,0164	0,3778	62,0817
31,2605	0,3773	62,0817
31,4885	0,3777	62,0817
31,6844	0,3782	62,0462
31,8706	0,3777	62,0817
32,0793	0,3768	62,0817
32,2527	0,3768	62,0462
32,4454	0,3769	62,0462
32,6702	0,3767	62,0817
32,8917	0,3760	62,0462
33,1037	0,3767	62,0107
33,2707	0,3765	62,0107
33,5147	0,3763	62,0107
33,6849	0,3758	62,0107
33,8615	0,3755	61,9753
34,0895	0,3750	62,0462
34,3079	0,3751	62,0817
34,5230	0,3742	62,0817
34,7285	0,3744	62,0462
34,9308	0,3740	62,0462
35,1171	0,3738	62,0462
35,2648	0,3728	62,0107
35,5120	0,3725	62,0462
35,7304	0,3723	62,0817
35,9263	0,3722	62,0817
36,1318	0,3717	62,0462
36,3245	0,3717	62,0107
36,5107	0,3703	62,0107
36,6905	0,3698	62,0462
36,9025	0,3701	62,0817
37,1208	0,3701	62,0817
37,2942	0,3692	62,0462
37,5158	0,3677	62,0817
37,7438	0,3670	62,0462
37,9172	0,3669	62,0107
38,0938	0,3668	62,0107
38,2929	0,3658	62,0817
38,5273	0,3649	62,0107
38,7007	0,3641	62,0462
38,9191	0,3632	62,0107
39,1021	0,3625	61,9753
39,2466	0,3621	62,0107
39,4746	0,3600	62,0462
39,6641	0,3598	62,0817
39,8824	0,3588	62,0817
40,0751	0,3576	62,0817
40,2710	0,3563	62,0817
40,4508	0,3550	62,0462
40,6178	0,3529	62,0462
40,8040	0,3517	62,0462
40,9999	0,3498	62,0462
41,2215	0,3486	62,0107
41,3981	0,3469	61,9753
41,5811	0,3449	61,9753
41,7256	0,3430	62,0107
41,9022	0,3410	62,0462
42,1142	0,3388	62,0817
42,3004	0,3367	62,0817
42,4802	0,3343	62,0817
42,6761	0,3312	62,0817
42,8270	0,3282	62,0817
42,9940	0,3259	62,0462
43,1546	0,3240	62,0817
43,3569	0,3203	62,0462
43,5399	0,3162	62,0107
43,6844	0,3130	61,9753
43,8482	0,3092	61,9753
43,9959	0,3057	62,0107
44,1725	0,3019	62,0817
44,3427	0,2973	62,0817
44,5097	0,2927	62,1526
44,6606	0,2881	62,1526
44,7762	0,2843	62,0817
44,9175	0,2797	62,1526
45,0684	0,2751	62,0462
45,2290	0,2691	62,0462
45,3959	0,2641	62,0107
45,5083	0,2578	61,9753
45,6432	0,2539	61,9753
45,7299	0,2478	62,0107
45,8840	0,2415	61,9753
46,0157	0,2358	62,0462
46,1377	0,2301	62,0462
46,2854	0,2239	62,0462
46,3786	0,2176	62,0462
46,4685	0,2113	62,0817
46,5680	0,2051	62,1526
46,6965	0,1990	62,0817
46,8088	0,1927	62,0462
46,9052	0,1868	62,0107
46,9919	0,1795	61,9753
47,0722	0,1736	61,9753
47,1364	0,1676	62,0107
47,2231	0,1612	62,1526
47,3258	0,1555	62,0817
47,4254	0,1489	62,0817
47,4703	0,1433	62,0462
47,5442	0,1381	62,0107
47,5956	0,1319	62,0107
47,6373	0,1267	62,0462
47,7176	0,1211	62,0462
47,8107	0,1155	62,0107
47,8589	0,1103	62,0107
47,8942	0,1056	62,0462
47,9263	0,1007	62,0817
47,9905	0,0963	62,1526
48,0516	0,0919	62,0462
48,0933	0,0867	62,0462
48,1190	0,0823	62,0462
48,1511	0,0786	62,0107
48,1961	0,0748	62,0462
48,2250	0,0711	62,0817
48,2763	0,0672	62,0817
48,3117	0,0648	62,0462
48,3406	0,0610	62,0462
48,3470	0,0586	62,0462
48,3502	0,0551	62,0462
48,3855	0,0530	62,0462
48,4401	0,0496	62,0462
48,4594	0,0473	62,0462
48,4658	0,0446	62,0107
48,4754	0,0431	61,9753
48,4883	0,0401	62,0462
48,5140	0,0393	62,0817
48,5557	0,0368	62,0462
48,5814	0,0346	62,0462
48,5718	0,0329	62,0107
48,5718	0,0314	62,0107
48,5686	0,0296	62,0462
48,5975	0,0285	62,0817
48,6167	0,0267	62,0462
48,6456	0,0255	62,0462
48,6553	0,0248	62,0107
48,6328	0,0232	62,0107
48,6392	0,0216	62,0107
48,6585	0,0211	62,0462
48,6777	0,0204	62,0107
48,7066	0,0190	62,0107
48,7163	0,0189	62,0107
48,6938	0,0173	62,0107
48,6938	0,0167	62,0462
48,7131	0,0157	62,0462
48,7098	0,0157	62,0817
48,7291	0,0151	62,1526
48,7387	0,0144	62,0462
48,7452	0,0136	62,0462
48,7131	0,0134	62,0107
48,7163	0,0121	62,0107
48,7131	0,0120	61,9753
48,7516	0,0112	61,9753
48,7452	0,0115	62,0107
48,7580	0,0103	62,0107
48,7516	0,0102	62,0462
48,7420	0,0101	62,0817
48,7676	0,0098	62,1526
48,7869	0,0090	62,0817
48,7869	0,0093	62,0817
48,7516	0,0082	62,0462
48,7548	0,0085	62,0462

14.12.2015	14:50:12
V	I	G
[V]	[A]	[W/m²]
0,1477	0,1566	27,0521
0,2344	0,1560	27,0876
0,3211	0,1559	27,0521
0,4014	0,1559	27,0876
0,4881	0,1559	27,0876
0,5684	0,1559	27,0521
0,6454	0,1568	27,0167
0,7418	0,1558	27,0167
0,8188	0,1566	27,0167
0,9280	0,1562	27,0167
1,0468	0,1563	27,0167
1,1303	0,1559	26,9458
1,2138	0,1560	26,9458
1,3005	0,1558	26,9103
1,3904	0,1562	26,9103
1,4611	0,1568	26,9812
1,5413	0,1562	26,9812
1,6152	0,1563	27,0167
1,6602	0,1566	27,0876
1,8015	0,1562	27,0876
1,9042	0,1562	27,1231
1,9941	0,1565	27,1231
2,0969	0,1560	27,0876
2,1900	0,1558	27,1231
2,2446	0,1563	27,0521
2,3570	0,1562	27,0167
2,4340	0,1557	26,9812
2,4918	0,1563	26,9812
2,5914	0,1558	26,9812
2,6813	0,1565	26,9812
2,7616	0,1563	27,0167
2,8643	0,1562	26,9812
2,9478	0,1560	26,9812
3,0602	0,1565	26,9812
3,1405	0,1559	26,9812
3,2304	0,1568	26,9458
3,3203	0,1560	26,9458
3,3910	0,1565	26,9812
3,4520	0,1559	26,9812
3,5579	0,1566	27,0521
3,6318	0,1557	27,0167
3,6992	0,1560	27,0521
3,7891	0,1553	27,0876
3,8983	0,1559	27,0876
3,9690	0,1560	27,0521
4,0878	0,1558	27,0876
4,1777	0,1559	27,0521
4,2676	0,1563	27,0167
4,3607	0,1552	27,0167
4,4506	0,1558	26,9812
4,5245	0,1560	26,9458
4,6176	0,1563	26,9458
4,6883	0,1566	26,9458
4,7300	0,1566	26,9458
4,8488	0,1562	26,9458
4,9259	0,1559	26,9812
5,0126	0,1563	26,9812
5,1250	0,1565	27,0167
5,2021	0,1562	27,0167
5,2823	0,1559	27,0167
5,3819	0,1558	27,0167
5,4686	0,1555	27,0876
5,5585	0,1563	27,0521
5,6612	0,1562	27,0521
5,7447	0,1560	27,0167
5,8154	0,1559	27,0167
5,8957	0,1559	27,0521
5,9920	0,1557	27,0167
6,0241	0,1562	27,0167
6,1397	0,1560	26,9812
6,2136	0,1562	26,9458
6,3099	0,1562	26,9812
6,4127	0,1563	26,9812
6,5026	0,1559	26,9812
6,5957	0,1562	26,9812
6,6984	0,1555	26,9458
6,7787	0,1560	26,9812
6,8590	0,1559	26,9812
6,9007	0,1562	26,9812
7,0099	0,1559	27,0167
7,0966	0,1558	27,0167
7,1737	0,1553	27,0521
7,2572	0,1558	27,0521
7,3535	0,1559	27,0876
7,4531	0,1559	27,0876
7,5398	0,1560	27,0521
7,6425	0,1557	27,0167
7,7389	0,1553	26,9812
7,7838	0,1559	26,9812
7,8866	0,1557	26,9812
7,9636	0,1559	26,9812
8,0246	0,1559	26,9812
8,1210	0,1560	26,9812
8,2141	0,1559	26,9812
8,2880	0,1557	26,9812
8,4004	0,1560	27,0167
8,4935	0,1549	26,9812
8,5673	0,1557	27,0167
8,6797	0,1549	27,0167
8,7761	0,1557	27,0167
8,8435	0,1557	27,0167
8,9302	0,1560	27,0521
9,0008	0,1557	27,0167
9,0811	0,1557	27,0521
9,1550	0,1557	27,0521
9,2320	0,1557	27,0167
9,3412	0,1557	27,0167
9,4440	0,1557	27,0167
9,5275	0,1550	27,0167
9,6238	0,1555	26,9812
9,7137	0,1553	26,9458
9,7811	0,1557	26,9458
9,8550	0,1557	26,9458
9,9385	0,1555	26,9812
9,9963	0,1550	26,9812
10,1119	0,1558	27,0521
10,2050	0,1559	27,0167
10,2789	0,1559	27,0167
10,3752	0,1557	27,0167
10,4812	0,1549	27,0167
10,5486	0,1559	27,0521
10,6546	0,1555	27,0521
10,7252	0,1555	27,0167
10,8055	0,1562	27,0521
10,8697	0,1553	27,0521
10,9693	0,1550	27,0167
11,0206	0,1557	27,0521
11,1170	0,1558	26,9812
11,2069	0,1559	26,9812
11,3032	0,1557	27,0167
11,4220	0,1555	26,9812
11,5120	0,1549	26,9812
11,5954	0,1553	26,9458
11,6789	0,1558	26,9458
11,7592	0,1555	26,9458
11,8202	0,1557	26,9812
11,8973	0,1558	26,9812
11,9840	0,1558	27,0167
12,0707	0,1557	27,0521
12,1638	0,1549	27,0876
12,2537	0,1553	27,0876
12,3340	0,1553	27,0876
12,4239	0,1557	27,0876
12,5299	0,1555	27,0521
12,6198	0,1558	27,0521
12,6937	0,1550	27,0167
12,7611	0,1552	26,9812
12,8542	0,1553	26,9812
12,9184	0,1563	26,9812
13,0148	0,1557	26,9812
13,1143	0,1558	26,9812
13,1946	0,1548	27,0167
13,2781	0,1553	27,0167
13,3937	0,1555	26,9812
13,4868	0,1559	26,9812
13,5478	0,1552	26,9812
13,6377	0,1557	27,0167
13,7116	0,1553	27,0167
13,7533	0,1563	27,0521
13,8593	0,1557	27,0521
13,9524	0,1559	27,0876
14,0134	0,1559	27,0876
14,1322	0,1548	27,0876
14,2318	0,1552	27,0876
14,3153	0,1552	27,0521
14,4148	0,1557	26,9812
14,4983	0,1557	27,0167
14,5818	0,1552	26,9458
14,6653	0,1557	26,9458
14,7424	0,1558	26,9458
14,8323	0,1557	26,9458
14,9029	0,1555	26,9458
14,9671	0,1548	26,9812
15,0571	0,1557	26,9812
15,1566	0,1558	26,9458
15,2048	0,1557	27,0167
15,3364	0,1552	27,0167
15,4135	0,1558	27,0521
15,5066	0,1549	27,0167
15,6029	0,1557	27,0167
15,7153	0,1557	27,0167
15,7731	0,1558	27,0167
15,8598	0,1552	27,0167
15,9433	0,1555	27,0167
15,9819	0,1549	27,0167
16,1007	0,1555	27,0167
16,1906	0,1552	27,0167
16,2227	0,1558	27,0167
16,3447	0,1550	27,0167
16,4089	0,1553	26,9812
16,5117	0,1557	27,0167
16,6016	0,1555	26,9812
16,6851	0,1558	26,9812
16,7782	0,1550	26,9458
16,8746	0,1552	26,9812
16,9709	0,1549	26,9812
17,0223	0,1557	27,0521
17,1218	0,1557	26,9812
17,2085	0,1558	27,0167
17,2471	0,1558	27,0521
17,3594	0,1557	27,0167
17,4365	0,1553	27,0521
17,5039	0,1562	27,0876
17,6163	0,1552	27,0876
17,7095	0,1557	27,0876
17,7801	0,1552	27,0521
17,8925	0,1557	27,0521
17,9760	0,1550	27,0167
17,9985	0,1558	27,0167
18,1622	0,1553	26,9812
18,2489	0,1549	26,9458
18,3324	0,1552	26,9103
18,4320	0,1553	26,9103
18,4512	0,1552	26,9103
18,5733	0,1552	26,9103
18,6535	0,1550	26,9458
18,7145	0,1553	26,9458
18,8141	0,1548	27,0167
18,8879	0,1553	27,0167
18,9586	0,1555	27,0521
19,0421	0,1550	27,0876
19,1416	0,1543	27,0876
19,2476	0,1558	27,1231
19,3215	0,1557	27,1940
19,4210	0,1552	27,0521
19,4981	0,1553	27,0876
19,6008	0,1548	27,0521
19,6972	0,1553	27,0167
19,7357	0,1550	26,9812
19,8320	0,1553	26,9458
19,9251	0,1553	26,9458
19,9894	0,1555	26,9458
20,0729	0,1550	26,9458
20,1531	0,1553	26,9812
20,2109	0,1555	27,0167
20,3522	0,1555	27,0167
20,4357	0,1550	27,0167
20,5160	0,1552	27,0167
20,6220	0,1552	27,0167
20,7055	0,1549	27,0521
20,7793	0,1553	27,0167
20,8532	0,1558	27,0521
20,9334	0,1555	27,0521
21,0137	0,1552	27,0521
21,0972	0,1553	27,0876
21,1936	0,1552	27,0876
21,2770	0,1549	27,0521
21,3702	0,1553	27,0167
21,4665	0,1550	26,9812
21,5468	0,1553	26,9812
21,6303	0,1550	26,9458
21,7009	0,1550	26,9458
21,7972	0,1550	26,9458
21,8711	0,1552	26,9458
21,9353	0,1553	26,9458
22,0349	0,1552	26,9812
22,1151	0,1552	26,9812
22,1922	0,1552	27,0167
22,2950	0,1550	27,0167
22,3720	0,1553	27,0521
22,4780	0,1555	27,0521
22,5647	0,1553	27,0521
22,6610	0,1550	27,0521
22,7349	0,1553	27,0521
22,8088	0,1550	27,0167
22,8762	0,1552	27,0167
22,9629	0,1552	27,0167
23,0528	0,1552	27,0167
23,1363	0,1548	26,9812
23,1973	0,1549	26,9458
23,2744	0,1552	26,9812
23,3836	0,1552	27,0167
23,4638	0,1553	27,0167
23,5762	0,1548	26,9812
23,6469	0,1553	27,0167
23,7336	0,1550	26,9812
23,8395	0,1550	27,0167
23,9070	0,1544	26,9812
23,9905	0,1555	27,0167
24,0643	0,1552	27,0167
24,1317	0,1553	27,0876
24,2088	0,1549	27,0521
24,2891	0,1550	27,0521
24,3822	0,1550	27,0876
24,4818	0,1552	27,0876
24,5620	0,1547	27,0521
24,6552	0,1548	27,0167
24,7579	0,1552	26,9458
24,8254	0,1557	26,9458
24,9281	0,1553	26,9103
24,9988	0,1550	26,9103
25,0726	0,1549	26,9103
25,1433	0,1553	26,9103
25,2492	0,1558	26,9458
25,3231	0,1555	26,9458
25,3937	0,1553	26,9812
25,4772	0,1543	27,0521
25,5768	0,1552	27,0876
25,6314	0,1553	27,1231
25,7534	0,1555	27,1940
25,8337	0,1550	27,1940
25,9332	0,1555	27,0876
26,0199	0,1544	27,0876
26,1162	0,1547	27,0876
26,1676	0,1548	27,0521
26,2800	0,1550	26,9812
26,3346	0,1548	26,9458
26,4213	0,1548	26,9103
26,4823	0,1544	26,9458
26,5786	0,1557	26,8394
26,6493	0,1557	26,9103
26,7328	0,1553	26,9458
26,8195	0,1548	26,9103
26,9287	0,1548	26,9812
27,0089	0,1548	27,0167
27,0988	0,1553	27,0167
27,1727	0,1553	27,0521
27,2787	0,1552	27,0521
27,3493	0,1550	27,0876
27,4553	0,1549	27,0876
27,5516	0,1549	27,0876
27,5998	0,1559	27,0876
27,6833	0,1549	27,0521
27,7796	0,1548	27,0167
27,8342	0,1549	26,9812
27,9305	0,1552	26,9812
28,0204	0,1555	26,9812
28,0847	0,1549	27,0167
28,1810	0,1548	26,9812
28,2709	0,1547	26,9812
28,3672	0,1549	26,9812
28,4764	0,1549	26,9458
28,5406	0,1550	26,9812
28,6145	0,1549	26,9458
28,7044	0,1547	26,9812
28,7783	0,1544	26,9458
28,8489	0,1550	26,9812
28,9324	0,1549	27,0521
29,0352	0,1549	27,0521
29,0994	0,1544	27,0876
29,1957	0,1548	27,1231
29,2728	0,1542	27,0876
29,3595	0,1552	27,0521
29,4622	0,1549	27,0167
29,5554	0,1543	27,0167
29,6485	0,1544	27,0167
29,7159	0,1547	26,9812
29,7962	0,1543	26,9103
29,8797	0,1549	26,9458
29,9471	0,1547	26,9458
30,0114	0,1543	26,9103
30,1173	0,1543	26,9812
30,1976	0,1543	26,9812
30,2907	0,1542	26,9812
30,3871	0,1543	26,9812
30,4641	0,1542	26,9812
30,5540	0,1543	26,9812
30,6247	0,1542	27,0521
30,7178	0,1539	27,0876
30,7660	0,1542	27,0521
30,8495	0,1539	27,1231
30,9426	0,1539	27,1231
31,0229	0,1542	27,1231
31,1224	0,1541	27,0876
31,2284	0,1542	27,0876
31,2765	0,1539	27,0167
31,3793	0,1538	26,9812
31,4596	0,1532	26,9103
31,4821	0,1538	26,9458
31,6105	0,1533	26,9103
31,6972	0,1533	26,9103
31,7711	0,1535	26,9103
31,8545	0,1531	26,9458
31,9412	0,1530	26,9812
31,9990	0,1530	26,9812
32,1339	0,1530	27,0521
32,2078	0,1528	27,0521
32,3041	0,1528	27,0521
32,3812	0,1526	27,0521
32,4615	0,1528	27,0521
32,5385	0,1531	27,0876
32,6124	0,1531	27,0521
32,6894	0,1530	27,0521
32,7601	0,1531	27,0521
32,8468	0,1525	27,0521
32,9239	0,1530	27,0521
33,0298	0,1523	27,0167
33,1326	0,1525	26,9812
33,2097	0,1523	26,9458
33,2931	0,1522	26,9458
33,3895	0,1515	26,9103
33,4441	0,1520	26,9458
33,5372	0,1520	26,9103
33,5950	0,1520	26,9458
33,6849	0,1520	26,9458
33,7652	0,1521	27,0167
33,8455	0,1519	27,0167
33,9161	0,1515	27,0167
34,0092	0,1510	27,0521
34,0895	0,1512	27,0876
34,1730	0,1512	27,0876
34,2725	0,1510	27,0521
34,3464	0,1511	27,0521
34,4492	0,1512	27,0521
34,5262	0,1510	27,0521
34,6065	0,1508	26,9812
34,6771	0,1510	27,0167
34,7574	0,1505	26,9812
34,8313	0,1504	26,9812
34,8505	0,1506	26,9812
34,9758	0,1498	26,9812
35,0528	0,1503	26,9812
35,1556	0,1498	27,0167
35,2391	0,1496	26,9458
35,3258	0,1501	26,9458
35,4157	0,1501	26,9458
35,4992	0,1498	26,9812
35,5827	0,1489	26,9812
35,6565	0,1495	26,9812
35,7336	0,1488	26,9812
35,8075	0,1493	26,9812
35,8717	0,1485	27,0167
35,9552	0,1493	27,0167
36,0258	0,1488	27,0521
36,1222	0,1488	27,0521
36,1767	0,1485	27,0521
36,2506	0,1484	27,0521
36,3405	0,1478	27,0521
36,4272	0,1477	27,0521
36,5075	0,1478	27,0876
36,6038	0,1473	27,0521
36,6648	0,1471	27,0167
36,7548	0,1473	27,0167
36,8479	0,1471	27,0167
36,9410	0,1468	26,9458
37,0052	0,1471	26,9458
37,0887	0,1463	26,9812
37,1754	0,1466	26,9812
37,2236	0,1457	26,9812
37,3328	0,1460	26,9812
37,4195	0,1452	26,9812
37,4773	0,1460	27,0167
37,5543	0,1455	27,0167
37,6282	0,1456	27,0876
37,6956	0,1449	27,0521
37,7791	0,1450	27,0521
37,8433	0,1446	27,0521
37,9300	0,1445	27,0167
37,9846	0,1447	27,0521
38,0842	0,1440	27,0167
38,1452	0,1436	27,0167
38,2094	0,1440	26,9812
38,3089	0,1431	26,9458
38,4085	0,1433	26,9458
38,4856	0,1428	26,9103
38,5498	0,1430	26,9103
38,6461	0,1424	26,9458
38,7296	0,1423	26,9458
38,7874	0,1414	26,9812
38,8741	0,1413	26,9812
38,9415	0,1412	27,0167
39,0154	0,1416	27,0521
39,0957	0,1409	27,0521
39,1663	0,1406	27,0521
39,2402	0,1401	27,0521
39,3237	0,1393	27,0167
39,3815	0,1400	27,0521
39,4328	0,1392	27,0167
39,5260	0,1387	27,0167
39,5934	0,1384	26,9458
39,6512	0,1375	26,9812
39,7475	0,1378	26,9812
39,8214	0,1376	26,9458
39,8888	0,1371	26,9103
39,9755	0,1366	26,9458
40,0430	0,1359	26,9812
40,1104	0,1358	27,0167
40,2067	0,1355	27,0167
40,2838	0,1352	27,0167
40,3416	0,1341	27,0521
40,4315	0,1347	27,0521
40,4989	0,1332	27,0521
40,5600	0,1333	27,0876
40,6467	0,1330	27,0521
40,6948	0,1328	27,0167
40,7880	0,1314	27,0521
40,8393	0,1317	27,0521
40,9036	0,1311	26,9812
40,9646	0,1308	26,9812
41,0384	0,1305	26,9458
41,0962	0,1295	26,9103
41,1604	0,1293	26,9103
41,2022	0,1293	26,9458
41,2921	0,1282	26,9812
41,3724	0,1276	26,9812
41,4591	0,1268	27,0167
41,4976	0,1263	27,0167
41,5843	0,1254	27,0167
41,6485	0,1256	27,0521

14.12.2015	14:55:30
V	I	G
[V]	[A]	[W/m²]
0,6069	0,1086	18,0466
1,2684	0,1083	18,1884
1,8849	0,1088	17,9757
2,4951	0,1082	18,1529
3,0923	0,1084	18,0820
3,7089	0,1088	18,1529
4,3318	0,1084	18,0466
4,9452	0,1089	18,1175
5,5296	0,1084	18,0466
6,1140	0,1088	18,1884
6,6728	0,1084	18,0466
7,2508	0,1086	18,1529
7,8962	0,1084	17,9757
8,5320	0,1084	18,1175
9,1389	0,1083	17,9757
9,7073	0,1083	18,1884
10,3174	0,1088	17,9757
10,9661	0,1082	18,1175
11,5473	0,1083	18,0466
12,1445	0,1082	18,1884
12,7161	0,1082	17,9757
13,3423	0,1083	18,1529
13,9267	0,1084	18,1175
14,5176	0,1081	18,1175
15,1309	0,1082	18,0820
15,7282	0,1081	18,1175
16,2869	0,1076	18,0820
16,8970	0,1083	18,1175
17,4879	0,1076	18,0466
18,0852	0,1079	18,1529
18,6792	0,1079	17,9402
19,2315	0,1082	18,1884
19,8545	0,1076	17,9757
20,4614	0,1081	18,1884
21,0523	0,1079	17,9757
21,6367	0,1081	18,2239
22,2147	0,1081	18,0466
22,7991	0,1076	18,1884
23,3161	0,1079	18,0820
23,9712	0,1075	18,1175
24,5428	0,1079	18,1175
25,1433	0,1082	18,1175
25,7373	0,1081	18,1175
26,3539	0,1081	18,1529
26,9319	0,1076	18,0820
27,5259	0,1075	18,1175
28,0975	0,1076	18,0820
28,7237	0,1066	18,1884
29,2728	0,1065	17,9402
29,8508	0,1066	18,2239
30,4545	0,1065	17,9757
31,0036	0,1057	18,1884
31,5720	0,1052	18,0466
32,1532	0,1046	18,1884
32,7440	0,1044	18,0466
33,2610	0,1037	18,1884
33,8615	0,1038	18,0466
34,4010	0,1027	18,1529
34,9533	0,1021	18,1175
35,5120	0,1010	18,1529
36,0644	0,1007	18,0820
36,5910	0,0991	18,0820
37,1208	0,0986	18,0820
37,6314	0,0975	18,1175
38,1323	0,0956	18,1175
38,6879	0,0942	18,1175
39,1695	0,0922	18,0820
39,6865	0,0902	18,1884
40,1586	0,0879	17,9757
40,6338	0,0851	18,1884
41,0866	0,0827	17,9402
41,5233	0,0794	18,1529
41,9151	0,0757	17,9402
42,3421	0,0718	18,1529
42,6793	0,0675	18,1175
43,0582	0,0633	18,0820
43,3826	0,0579	18,1175
43,6619	0,0537	18,1175
43,9445	0,0491	17,9757
44,1629	0,0437	18,1884
44,4069	0,0391	18,0820
44,6060	0,0353	18,1175
44,7537	0,0308	18,1175
44,9496	0,0267	18,1175
45,0234	0,0236	17,9757
45,1808	0,0201	18,1175
45,2129	0,0175	18,0466
45,3414	0,0148	18,1175
45,3510	0,0128	18,0466
45,4602	0,0107	18,1529
45,5019	0,0091	18,0466
45,5758	0,0077	18,1175
45,5950	0,0065	18,0466
45,6464	0,0053	18,0820
45,6336	0,0047	18,0820

14.12.2015	15:00:30
V	I	G
[V]	[A]	[W/m²]
0,3404	0,0548	8,7928
0,6454	0,0550	8,9701
0,9826	0,0547	8,9347
1,3037	0,0550	8,8992
1,6248	0,0548	8,8992
1,9267	0,0551	8,9347
2,2285	0,0552	8,8283
2,5496	0,0550	8,9347
2,8322	0,0550	8,8992
3,1919	0,0543	8,9701
3,5130	0,0547	8,8992
3,8470	0,0546	8,8992
4,1424	0,0546	8,8992
4,4314	0,0550	8,9347
4,7396	0,0547	8,8283
5,0576	0,0547	8,9347
5,3690	0,0551	8,8992
5,6645	0,0547	8,8992
5,9888	0,0546	8,8992
6,3195	0,0547	8,9347
6,6117	0,0547	8,7928
6,9296	0,0547	8,8283
7,2283	0,0548	8,8992
7,5333	0,0548	8,8992
7,8320	0,0547	8,7574
8,1081	0,0548	8,9347
8,4389	0,0546	8,9347
8,7279	0,0542	8,9347
9,0747	0,0543	8,8992
9,3958	0,0546	8,8283
9,6784	0,0547	8,7928
9,9674	0,0542	8,9347
10,2885	0,0546	8,9347
10,6257	0,0542	8,8283
10,8922	0,0547	8,8283
11,2101	0,0546	8,9701
11,5473	0,0543	8,8283
11,8138	0,0551	8,8992
12,1189	0,0547	8,9347
12,4432	0,0541	8,8992
12,7579	0,0546	8,8283
13,0244	0,0546	8,9347
13,3712	0,0546	8,8283
13,6570	0,0543	8,9347
13,9267	0,0546	8,8992
14,2735	0,0546	8,8992
14,5786	0,0546	8,8992
14,8612	0,0542	8,8992
15,1566	0,0546	8,7574
15,4456	0,0546	8,8992
15,8020	0,0546	8,8992
16,0782	0,0547	8,8992
16,3672	0,0543	8,8283
16,6979	0,0542	8,9347
16,9902	0,0547	8,8283
17,2824	0,0543	8,9347
17,5971	0,0543	8,8283
17,9118	0,0541	8,8283
18,1847	0,0546	8,9701
18,5283	0,0540	8,8283
18,7948	0,0541	8,8283
19,1063	0,0543	8,9347
19,4049	0,0543	8,7928
19,7100	0,0546	8,9347
20,0054	0,0541	8,9347
20,3169	0,0542	8,8992
20,5995	0,0543	8,7928
20,8885	0,0548	9,0056
21,2225	0,0543	8,8283
21,4954	0,0538	8,7928
21,8165	0,0540	8,8283
22,1023	0,0543	8,9701
22,4234	0,0541	8,8283
22,7124	0,0541	8,9347
23,0014	0,0543	8,8992
23,3450	0,0541	8,8992
23,5987	0,0543	8,8283
23,9294	0,0546	8,9701
24,1863	0,0547	8,8992
24,5042	0,0546	8,8992
24,8350	0,0541	8,8992
25,1047	0,0540	8,9347
25,4226	0,0540	8,7928
25,7116	0,0541	8,8992
26,0071	0,0541	8,8283
26,2864	0,0541	8,9347
26,6236	0,0531	8,7928
26,8933	0,0535	8,9347
27,2177	0,0534	8,8992
27,4842	0,0538	8,8992
27,7925	0,0538	8,8283
28,0558	0,0531	8,9347
28,3929	0,0531	8,8992
28,6595	0,0534	8,8992
28,9709	0,0530	8,8992
29,2471	0,0532	8,9347
29,5586	0,0524	8,9347
29,8315	0,0529	8,8283
30,1205	0,0523	8,8283
30,4352	0,0521	8,8992
30,6857	0,0523	8,8992
30,9875	0,0521	8,7928
31,2380	0,0519	8,9347
31,5463	0,0515	8,9347
31,8513	0,0515	8,8283
32,1018	0,0514	8,8992
32,4326	0,0504	8,8992
32,6509	0,0504	8,8992
32,9656	0,0503	8,7928
33,2193	0,0503	8,9347
33,5308	0,0496	8,8283
33,7684	0,0498	8,8992
34,0253	0,0500	8,8283
34,3496	0,0494	8,9347
34,5519	0,0492	8,8992
34,8730	0,0483	8,8992
35,1203	0,0478	8,8283
35,3868	0,0478	8,9347
35,6501	0,0473	8,8283
35,8845	0,0473	8,9701
36,1735	0,0461	8,7928
36,3951	0,0459	8,8992
36,6584	0,0455	8,8283
36,9217	0,0449	8,9347
37,1272	0,0451	8,7928
37,4259	0,0439	8,9347
37,6186	0,0437	8,7928
37,8979	0,0427	8,8992
38,0906	0,0423	8,8992
38,3603	0,0415	8,8283
38,5434	0,0412	8,8283
38,7906	0,0401	8,8992
39,0186	0,0391	8,8992
39,2081	0,0391	8,8283
39,4104	0,0378	8,9347
39,6416	0,0374	8,8283
39,8150	0,0366	8,8283
40,0333	0,0356	8,8992
40,1971	0,0345	8,7928
40,4219	0,0337	8,8992
40,5728	0,0323	8,8283
40,7655	0,0319	8,9347
40,9164	0,0303	8,8283
41,0866	0,0293	8,8992
41,2568	0,0281	8,7574
41,3916	0,0276	8,9347
41,5490	0,0263	8,7928
41,6806	0,0254	8,8992
41,8316	0,0239	8,8283
41,9440	0,0226	8,8283
42,0499	0,0224	8,8283
42,2137	0,0206	8,8283
42,3004	0,0200	8,8283
42,3743	0,0188	8,9347
42,5188	0,0174	8,7928
42,6087	0,0164	8,7928
42,6729	0,0151	8,8283
42,7981	0,0142	8,8992
42,8142	0,0139	8,7928
42,9491	0,0130	8,8283
42,9715	0,0121	8,8283
43,0903	0,0112	8,8283
43,1032	0,0105	8,7928
43,1867	0,0099	8,8992
43,2445	0,0088	8,8283
43,2509	0,0085	8,8283
43,3312	0,0075	8,8992
43,3890	0,0074	8,8992

14.12.2015	15:05:30
V	I	G
[V]	[A]	[W/m²]
0,1573	0,0256	3,9710
0,3179	0,0256	4,0419
0,4977	0,0259	4,0773
0,6711	0,0255	4,1128
0,8060	0,0261	3,9710
0,9505	0,0258	4,0419
1,0982	0,0259	4,0419
1,2909	0,0255	4,0773
1,4257	0,0261	4,0419
1,5670	0,0263	4,0773
1,7115	0,0261	4,0419
1,9203	0,0261	4,0773
2,0487	0,0259	4,0419
2,1964	0,0261	4,1128
2,3345	0,0259	4,0773
2,5240	0,0254	4,0773
2,6974	0,0263	4,0773
2,8451	0,0261	4,0419
2,9703	0,0264	4,0419
3,1212	0,0258	4,1128
3,3107	0,0256	3,9710
3,4070	0,0258	4,1128
3,5965	0,0259	4,0773
3,7667	0,0256	4,0773
3,8983	0,0261	3,9710
4,0396	0,0261	4,1128
4,1841	0,0256	4,1128
4,3543	0,0261	4,0773
4,5052	0,0258	4,0419
4,6690	0,0265	4,0419
4,8103	0,0256	4,0773
4,9901	0,0259	4,0773
5,1025	0,0258	4,0773
5,2663	0,0254	4,0419
5,4429	0,0261	4,0419
5,5778	0,0263	4,1128
5,7030	0,0259	4,0419
5,8668	0,0263	3,9710
6,0594	0,0258	4,0419
6,1750	0,0259	4,0773
6,3035	0,0258	4,0773
6,4961	0,0258	4,0773
6,6471	0,0261	4,0419
6,7659	0,0254	4,0419
6,9489	0,0263	4,1128
7,1127	0,0258	4,1128
7,2283	0,0258	4,0773
7,3792	0,0258	4,0773
7,5462	0,0259	3,9710
7,6939	0,0258	4,1128
7,8512	0,0258	4,0419
7,9508	0,0258	4,1482
8,1659	0,0261	3,9355
8,2880	0,0255	3,9710
8,4260	0,0258	3,9710
8,5866	0,0258	4,1482
8,7568	0,0256	4,0419
8,8917	0,0258	4,0419
9,0329	0,0255	3,9710
9,1967	0,0258	4,0773
9,3316	0,0254	4,0773
9,4889	0,0255	4,0773
9,6110	0,0261	4,0419
9,8004	0,0256	4,0419
9,9289	0,0256	4,0419
10,0734	0,0256	4,1128
10,1922	0,0259	4,0773
10,4073	0,0258	4,0419
10,5454	0,0256	3,9710
10,6610	0,0264	4,1128
10,8280	0,0255	4,0773
10,9725	0,0259	4,0773
11,1138	0,0255	4,0773
11,2583	0,0258	4,0773
11,4220	0,0259	4,0419
11,5665	0,0253	4,1128
11,6918	0,0258	4,0773
11,8620	0,0255	4,0419
12,0354	0,0256	4,0773
12,1831	0,0258	4,0773
12,3147	0,0258	3,9710
12,4592	0,0259	4,0419
12,6005	0,0254	4,0419
12,7707	0,0259	4,1128
12,8703	0,0259	4,0419
13,0533	0,0254	4,1128
13,2299	0,0258	4,0419
13,3648	0,0256	4,0419
13,4772	0,0263	4,0419
13,6506	0,0256	4,0773
13,7951	0,0256	4,0773
13,9588	0,0254	4,0419
14,0969	0,0263	4,0419
14,2575	0,0255	4,0773
14,3956	0,0258	4,0419
14,5336	0,0258	4,0419
14,6814	0,0258	3,9710
14,8226	0,0259	4,0773
15,0025	0,0258	4,0419
15,1149	0,0255	4,0773
15,2690	0,0255	4,0773
15,4071	0,0258	4,0773
15,5708	0,0259	4,0773
15,6896	0,0255	4,1128
15,8823	0,0254	3,9710
16,0140	0,0258	4,0773
16,1713	0,0255	4,0773
16,2901	0,0258	4,0773
16,4571	0,0256	4,0773
16,6145	0,0258	4,0419
16,7076	0,0259	4,0773
16,9163	0,0256	4,0773
17,0640	0,0255	3,9710
17,1989	0,0256	4,0773
17,3081	0,0261	3,9710
17,5007	0,0250	4,0419
17,6292	0,0258	4,0419
17,7480	0,0250	4,0773
17,9182	0,0255	4,0419
18,0627	0,0249	4,0773
18,2136	0,0253	4,0419
18,3421	0,0256	4,0773
18,5283	0,0254	4,0773
18,6696	0,0258	4,0773
18,8205	0,0256	3,9710
18,9329	0,0258	4,0419
19,0806	0,0256	4,0419
19,2412	0,0261	4,1128
19,3857	0,0255	4,0773
19,5494	0,0258	4,0419
19,6618	0,0258	4,0419
19,8352	0,0253	4,0773
19,9701	0,0255	4,0419
20,1114	0,0255	4,0773
20,2655	0,0258	4,0773
20,3972	0,0255	4,0419
20,5160	0,0255	4,0419
20,7279	0,0256	4,0773
20,8692	0,0254	4,0419
20,9591	0,0258	4,0773
21,1293	0,0258	4,0773
21,2931	0,0258	4,0419
21,4472	0,0255	4,0773
21,5693	0,0255	4,0419
21,7202	0,0255	4,0419
21,8711	0,0255	4,0773
22,0445	0,0256	4,0419
22,1184	0,0254	4,0419
22,3175	0,0256	4,0773
22,4587	0,0261	4,0419
22,6257	0,0258	4,0419
22,7060	0,0259	4,0419
22,8730	0,0258	4,0773
23,0400	0,0255	4,0419
23,1845	0,0258	4,0419
23,3225	0,0256	4,0773
23,4992	0,0250	4,0773
23,6051	0,0253	3,9710
23,7689	0,0254	4,0419
23,9005	0,0250	4,1128
24,0643	0,0248	4,0773
24,1960	0,0249	4,0773
24,3180	0,0258	4,0419
24,5042	0,0253	4,0419
24,6231	0,0253	4,0773
24,7965	0,0249	4,1128
24,8286	0,0255	4,0419
25,0630	0,0253	4,0419
25,2235	0,0245	3,9710
25,3295	0,0249	4,1128
25,4868	0,0254	4,1128
25,6667	0,0254	4,0419
25,7887	0,0248	3,9710
25,8882	0,0248	4,0773
26,0681	0,0247	4,0773
26,2061	0,0254	4,1128
26,3185	0,0254	3,9710
26,4791	0,0248	4,0773
26,6268	0,0245	4,0419
26,7906	0,0250	4,1128
26,9094	0,0253	4,0419
27,0378	0,0249	4,0773
27,2080	0,0248	4,0419
27,3493	0,0247	4,0419
27,4424	0,0250	4,0419
27,6126	0,0245	4,1128
27,7443	0,0247	4,0419
27,9081	0,0239	4,0419
27,9948	0,0249	3,9710
28,1585	0,0238	4,0773
28,3255	0,0243	4,0419
28,4315	0,0245	4,0419
28,5631	0,0239	4,0419
28,7173	0,0244	4,0419
28,8586	0,0240	4,1128
28,9966	0,0243	4,0773
29,1283	0,0244	4,0419
29,2856	0,0243	4,0419
29,3980	0,0239	4,0773
29,5040	0,0236	4,1482
29,6870	0,0237	4,0419
29,7994	0,0239	4,0773
29,9439	0,0237	3,9710
30,0403	0,0239	4,1128
30,1976	0,0232	4,0419
30,3389	0,0237	4,0773
30,4738	0,0236	4,0419
30,5894	0,0229	4,0419
30,7403	0,0228	4,0419
30,8784	0,0232	4,1128
30,9715	0,0234	4,0773
31,1545	0,0231	4,0773
31,2573	0,0228	4,0419
31,4082	0,0229	4,0419
31,5013	0,0229	4,0419
31,6587	0,0224	4,0419
31,7743	0,0228	4,0773
31,9156	0,0220	4,0419
32,0183	0,0228	4,0773
32,1692	0,0224	4,0773
32,2720	0,0218	4,0773
32,4037	0,0224	4,1128
32,5289	0,0220	4,0419
32,6734	0,0222	3,9710
32,7858	0,0217	3,9710
32,8982	0,0222	4,1482
33,0523	0,0213	4,0419
33,1486	0,0213	4,0419
33,2675	0,0213	4,0419
33,3927	0,0212	4,0419
33,5211	0,0216	4,0419
33,6207	0,0207	4,1128
33,7491	0,0212	4,0419
33,8840	0,0207	4,0419
33,9771	0,0207	3,9710
34,1248	0,0204	4,0773
34,1923	0,0210	4,0773
34,3207	0,0202	4,1482
34,4620	0,0199	4,0419
34,5744	0,0200	3,9710
34,6611	0,0201	3,9710
34,7863	0,0194	4,1128
34,8987	0,0195	4,0419
34,9983	0,0197	4,0773
35,1106	0,0194	4,0419
35,2519	0,0190	4,0773
35,3290	0,0191	4,0419
35,4414	0,0189	4,1482
35,5570	0,0189	4,0419
35,6758	0,0184	4,0773
35,7657	0,0185	3,9710
35,8492	0,0183	4,0773
36,0001	0,0179	4,0419
36,0740	0,0177	4,0419
36,1928	0,0182	3,9710
36,2506	0,0175	4,0773
36,4112	0,0174	4,0773
36,4882	0,0172	4,0773
36,5492	0,0174	3,9710
36,6970	0,0171	4,0419
36,7708	0,0166	3,9710
36,8543	0,0163	4,0773
36,9571	0,0166	4,0419
37,0630	0,0162	4,0773
37,1433	0,0158	4,0419
37,2557	0,0157	4,0419
37,2653	0,0162	4,0419
37,4387	0,0155	4,0773
37,4965	0,0155	3,9710
37,5832	0,0146	4,0773
37,6731	0,0147	4,0419
37,7663	0,0147	4,1482
37,8530	0,0140	3,9710
37,9236	0,0142	4,0773
38,0135	0,0137	3,9710
38,0842	0,0136	4,1482
38,1869	0,0132	4,0419
38,2126	0,0136	3,9710
38,3250	0,0128	4,0419
38,4149	0,0126	4,0773
38,4856	0,0124	4,0419
38,5369	0,0126	4,0773
38,6108	0,0120	4,0419
38,7007	0,0119	4,0419
38,7553	0,0118	3,9710
38,8195	0,0117	4,0773
38,8902	0,0110	4,0419
38,9576	0,0109	4,0773
39,0122	0,0109	3,9710
39,0796	0,0103	4,0773
39,1663	0,0102	4,0419
39,2081	0,0102	4,0773
39,2627	0,0099	3,9355
39,3205	0,0098	4,0419
39,4039	0,0098	4,0419
39,4232	0,0098	4,0773
39,5195	0,0090	4,0419

14.12.2015	15:10:30
V	I	G
[V]	[A]	[W/m²]
0,1541	0,0267	3,9355
0,3404	0,0265	3,9000
0,4785	0,0264	3,9355
0,6711	0,0265	3,9710
0,8188	0,0261	3,9710
0,9826	0,0264	3,9000
1,1496	0,0269	3,9355
1,2941	0,0267	3,9710
1,4482	0,0263	3,9355
1,6024	0,0264	3,9355
1,8047	0,0266	3,9000
1,9171	0,0266	3,9710
2,0648	0,0266	3,9355
2,2606	0,0264	3,9355
2,3923	0,0267	3,9355
2,5785	0,0266	3,9355
2,7070	0,0265	3,9000
2,8579	0,0264	3,9710
3,0345	0,0264	3,9355
3,1887	0,0263	3,9355
3,3460	0,0264	3,9000
3,5226	0,0265	3,9355
3,6286	0,0267	3,9710
3,8373	0,0261	3,9710
3,9690	0,0259	3,9710
4,1424	0,0266	3,8646
4,2901	0,0264	3,9710
4,4153	0,0271	3,9710
4,5919	0,0267	3,9355
4,7396	0,0264	3,9710
4,9259	0,0266	3,9355
5,0479	0,0261	3,9000
5,2117	0,0266	3,9710
5,3626	0,0266	3,9355
5,5200	0,0263	3,9710
5,6998	0,0264	3,9355
5,8218	0,0264	3,9355
6,0113	0,0261	3,9710
6,1140	0,0266	3,9355
6,3035	0,0264	3,9710
6,4544	0,0264	3,9000
6,6182	0,0263	3,9355
6,7787	0,0263	3,9710
6,8943	0,0265	3,9710
7,0549	0,0264	3,9000
7,2347	0,0261	3,9000
7,3567	0,0264	3,9710
7,5109	0,0264	3,9710
7,7035	0,0261	3,9000
7,8063	0,0264	3,8646
7,9701	0,0264	3,9355
8,1531	0,0256	3,9710
8,2944	0,0264	3,9000
8,4068	0,0261	3,9000
8,6059	0,0264	3,9355
8,7311	0,0264	3,9355
8,9013	0,0263	3,9710
9,0265	0,0263	3,9355
9,1967	0,0263	3,9355
9,3669	0,0264	3,9710
9,5146	0,0263	3,9710
9,6752	0,0265	3,9355
9,8261	0,0266	3,8646
9,9867	0,0264	3,9000
10,1023	0,0261	3,9710
10,2468	0,0263	3,9710
10,3945	0,0264	3,9710
10,6064	0,0266	3,9000
10,7156	0,0263	3,9000
10,8761	0,0259	3,9710
11,0367	0,0264	3,9710
11,1940	0,0265	3,9710
11,3418	0,0266	3,9000
11,4959	0,0263	3,9000
11,6211	0,0264	3,9355
11,7849	0,0258	3,9710
11,9198	0,0264	3,9710
12,1028	0,0265	3,9710
12,2601	0,0263	3,9710
12,4271	0,0258	3,9000
12,5620	0,0263	3,9355
12,6969	0,0264	3,9355
12,8060	0,0265	3,9710
13,0083	0,0264	3,9710
13,1785	0,0264	3,9355
13,3423	0,0259	3,9355
13,4740	0,0265	3,9355
13,5896	0,0261	3,9355
13,7533	0,0265	3,9355
13,9267	0,0261	3,9355
14,0809	0,0263	3,9355
14,2157	0,0261	3,9355
14,3442	0,0264	3,9355
14,5112	0,0264	3,9355
14,6781	0,0266	3,9355
14,7937	0,0263	3,9710
14,9864	0,0258	3,9355
15,1277	0,0264	3,9355
15,2272	0,0264	3,9355
15,4071	0,0264	3,9710
15,6062	0,0264	3,9710
15,6896	0,0263	3,9355
15,8920	0,0261	3,9000
15,9979	0,0263	3,9355
16,1585	0,0263	3,9710
16,3287	0,0259	3,9355
16,4667	0,0263	3,9710
16,6369	0,0263	3,9355
16,7493	0,0265	3,9355
16,9067	0,0264	3,9710
17,0576	0,0263	3,9355
17,2406	0,0261	3,9710
17,3659	0,0258	3,9355
17,5072	0,0263	4,0419
17,6517	0,0264	3,9355
17,8026	0,0256	3,9355
17,9953	0,0263	3,9355
18,0948	0,0259	3,9710
18,2843	0,0259	3,9355
18,4063	0,0263	3,9000
18,5251	0,0265	3,9710
18,7370	0,0267	3,9710
18,8494	0,0263	4,0419
19,0292	0,0263	3,9710
19,1609	0,0261	3,9000
19,2861	0,0263	3,9710
19,4692	0,0264	3,9710
19,6201	0,0263	3,9355
19,7357	0,0263	3,9355
19,8962	0,0264	3,9710
20,0472	0,0256	3,9710
20,2109	0,0261	3,9355
20,3330	0,0264	3,9000
20,5224	0,0261	3,9355
20,6605	0,0258	3,9355
20,7954	0,0263	4,0419
20,9559	0,0265	3,9710
21,1101	0,0264	3,9355
21,2257	0,0265	3,9355
21,4151	0,0259	3,9710
21,5500	0,0266	3,9000
21,6784	0,0264	3,9710
21,8358	0,0261	3,9710
22,0092	0,0258	3,9710
22,1408	0,0258	3,9355
22,3110	0,0264	3,9000
22,4170	0,0261	3,9355
22,5936	0,0259	4,0419
22,7445	0,0265	3,9355
22,9019	0,0256	3,9000
23,0303	0,0264	3,9000
23,1877	0,0259	4,0419
23,3450	0,0265	3,9710
23,4670	0,0259	3,9355
23,6212	0,0258	3,9710
23,8010	0,0258	3,9710
23,9134	0,0258	3,9355
24,0707	0,0261	3,9710
24,2217	0,0263	3,9355
24,3662	0,0258	3,9355
24,5107	0,0261	4,0419
24,6776	0,0258	3,9710
24,7997	0,0259	3,9355
24,9249	0,0256	3,9710
25,1208	0,0258	3,9000
25,2492	0,0255	3,9355
25,3937	0,0256	3,9710
25,5511	0,0259	3,9000
25,6795	0,0255	3,9710
25,8208	0,0256	3,9355
25,9782	0,0254	4,0419
26,1323	0,0256	3,9355
26,2639	0,0254	3,9710
26,4084	0,0255	3,9000
26,5401	0,0256	3,9710
26,7103	0,0254	3,9710
26,8291	0,0258	3,9355
26,9897	0,0254	3,9710
27,1310	0,0253	3,9355
27,2658	0,0248	4,0419
27,4071	0,0253	3,9000
27,5484	0,0253	3,9355
27,7282	0,0254	3,9355
27,8278	0,0250	3,9710
28,0044	0,0250	3,9710
28,0911	0,0249	3,9710
28,2805	0,0249	3,9355
28,3994	0,0254	3,9355
28,5439	0,0249	4,0419
28,6884	0,0245	3,9355
28,8040	0,0248	3,9710
28,9774	0,0248	3,9355
29,0994	0,0244	3,9355
29,2535	0,0245	3,9355
29,3723	0,0244	4,0419
29,5072	0,0245	3,9355
29,6581	0,0245	3,9000
29,7834	0,0245	3,9000
29,9632	0,0245	3,9355
30,0692	0,0238	4,0419
30,2008	0,0238	3,9000
30,3421	0,0237	3,9355
30,4834	0,0239	3,9355
30,6215	0,0243	4,0419
30,7595	0,0237	3,9710
30,8751	0,0237	3,9710
31,0389	0,0234	3,9355
31,1224	0,0238	3,9710
31,3054	0,0237	3,9710
31,4467	0,0234	3,9710
31,5334	0,0228	3,9355
31,7004	0,0231	3,9000
31,7967	0,0232	3,9710
31,9348	0,0231	4,0419
32,0954	0,0226	3,9710
32,2014	0,0228	3,9000
32,3459	0,0224	3,9000
32,4518	0,0229	3,9710
32,5803	0,0228	3,9710
32,6959	0,0224	3,9710
32,8500	0,0226	3,9000
32,9945	0,0224	3,9355
33,0780	0,0226	3,9710
33,1872	0,0221	4,0419
33,3317	0,0213	3,9710
33,4890	0,0216	3,9355
33,5725	0,0217	3,9000
33,7427	0,0218	4,0419
33,8069	0,0213	3,9710
33,9322	0,0216	3,9355
34,0959	0,0213	3,9000
34,2244	0,0207	3,9355
34,3079	0,0213	3,9710
34,4395	0,0211	3,9355
34,5423	0,0211	3,9710
34,6579	0,0201	4,0419
34,7767	0,0202	3,9710
34,9276	0,0199	3,9355
35,0079	0,0199	3,9710
35,1042	0,0199	4,0419
35,2134	0,0204	3,9710
35,3708	0,0197	3,9000
35,4896	0,0193	3,9355
35,5634	0,0197	3,9710
35,6822	0,0189	3,9355
35,7721	0,0191	4,0419
35,9199	0,0189	3,9355
36,0290	0,0183	3,9355
36,1125	0,0182	3,9710
36,1992	0,0183	3,9710
36,2891	0,0182	3,9710
36,4144	0,0177	3,9355
36,5171	0,0175	4,0419
36,6327	0,0175	3,9355
36,7451	0,0175	3,9710
36,8061	0,0174	3,9710
36,9314	0,0173	3,9000
37,0020	0,0169	3,9355
37,1401	0,0158	3,9710
37,1979	0,0166	4,0419
37,2846	0,0163	3,9710
37,3841	0,0164	3,9355
37,4837	0,0157	4,0419
37,5736	0,0157	3,9710
37,6924	0,0146	3,9355
37,7566	0,0153	4,0419
37,8048	0,0153	3,9355
37,9397	0,0152	3,9355
38,0199	0,0145	4,0419
38,0713	0,0140	3,9710
38,1901	0,0140	3,9000
38,2383	0,0142	3,9710
38,3250	0,0140	3,9000
38,4149	0,0130	3,9710
38,4823	0,0135	3,9710
38,5915	0,0130	3,9355
38,6558	0,0129	3,9710
38,6911	0,0129	3,9355
38,7874	0,0121	3,9355
38,8837	0,0117	3,9355
38,9255	0,0119	3,9710
38,9801	0,0117	4,0419
39,0860	0,0119	3,9000
39,1149	0,0115	4,0419
39,1792	0,0108	3,9355
39,2723	0,0107	3,9355
39,3397	0,0103	3,9710
39,3622	0,0103	3,9355
39,4521	0,0103	3,9000
39,4842	0,0099	4,0419
39,5741	0,0096	3,9710
39,6416	0,0096	3,9710
39,6641	0,0092	3,9710
39,7186	0,0088	3,9000

14.12.2015	15:15:30
V	I	G
[V]	[A]	[W/m²]
0,2440	0,0410	6,3819
0,5106	0,0411	6,3819
0,7450	0,0408	6,3464
0,9987	0,0406	6,4883
1,2234	0,0405	6,4174
1,4579	0,0408	6,4174
1,7148	0,0410	6,3464
1,9524	0,0406	6,4174
2,1739	0,0411	6,3819
2,4276	0,0410	6,4883
2,6492	0,0405	6,4174
2,8804	0,0412	6,3819
3,1148	0,0408	6,3819
3,3460	0,0408	6,4174
3,5612	0,0412	6,4174
3,8148	0,0410	6,3819
4,0910	0,0412	6,4883
4,3029	0,0412	6,4883
4,5245	0,0410	6,3110
4,7974	0,0411	6,4174
5,0030	0,0405	6,4883
5,2342	0,0405	6,4883
5,5039	0,0411	6,3819
5,7158	0,0411	6,3819
5,9599	0,0405	6,4883
6,1847	0,0408	6,4883
6,3934	0,0413	6,3819
6,6471	0,0412	6,4174
6,8590	0,0408	6,3819
7,0870	0,0415	6,4174
7,3214	0,0412	6,4174
7,5590	0,0405	6,4883
7,8256	0,0410	6,3819
8,0535	0,0405	6,4883
8,2559	0,0406	6,4174
8,5192	0,0408	6,4174
8,7504	0,0404	6,4174
8,9591	0,0410	6,4174
9,2224	0,0404	6,4174
9,4343	0,0410	6,5237
9,6623	0,0408	6,3464
9,9064	0,0405	6,4883
10,1151	0,0408	6,4174
10,3624	0,0404	6,4174
10,5550	0,0408	6,3819
10,8280	0,0411	6,5237
10,9950	0,0406	6,4883
11,2807	0,0405	6,4883
11,5184	0,0412	6,3819
11,7721	0,0410	6,4883
11,9615	0,0410	6,3819
12,2248	0,0408	6,4883
12,4335	0,0410	6,4174
12,6776	0,0412	6,4883
12,9056	0,0408	6,4883
13,1239	0,0411	6,4174
13,3808	0,0405	6,4174
13,5960	0,0406	6,5237
13,8111	0,0408	6,3819
14,0520	0,0410	6,3819
14,2511	0,0406	6,4174
14,4758	0,0412	6,4883
14,7038	0,0410	6,4174
14,9832	0,0404	6,4883
15,1951	0,0405	6,4174
15,4456	0,0404	6,4174
15,6415	0,0411	6,4174
15,8952	0,0405	6,4883
16,1232	0,0404	6,4174
16,3190	0,0412	6,5237
16,5823	0,0406	6,4174
16,8168	0,0411	6,4883
17,0159	0,0411	6,3819
17,2631	0,0406	6,4174
17,5072	0,0404	6,4174
17,7191	0,0404	6,4883
17,9085	0,0405	6,4883
18,1590	0,0406	6,4883
18,3710	0,0413	6,5237
18,6375	0,0406	6,4174
18,8623	0,0408	6,4174
19,0774	0,0408	6,5237
19,3118	0,0411	6,4883
19,5398	0,0404	6,4883
19,7614	0,0408	6,3819
19,9862	0,0406	6,5237
20,2270	0,0408	6,4174
20,4614	0,0406	6,5592
20,6701	0,0404	6,4883
20,9013	0,0410	6,4883
21,1422	0,0408	6,4174
21,3702	0,0405	6,4883
21,5725	0,0411	6,4174
21,7844	0,0408	6,5237
22,0349	0,0404	6,4883
22,2886	0,0410	6,5237
22,5133	0,0406	6,4883
22,7445	0,0401	6,5237
22,9533	0,0404	6,5237
23,1845	0,0406	6,5592
23,3932	0,0408	6,4883
23,6115	0,0406	6,4883
23,8684	0,0410	6,4174
24,1061	0,0402	6,4174
24,3180	0,0405	6,4883
24,5524	0,0406	6,5237
24,7708	0,0408	6,4883
24,9763	0,0405	6,5237
25,1914	0,0405	6,4174
25,4290	0,0405	6,4883
25,6699	0,0410	6,5237
25,8979	0,0404	6,4883
26,1355	0,0401	6,3819
26,3539	0,0400	6,4174
26,5497	0,0400	6,4883
26,7842	0,0401	6,4883
26,9993	0,0399	6,4174
27,2112	0,0401	6,5237
27,4392	0,0396	6,4883
27,6704	0,0399	6,5237
27,8727	0,0399	6,4883
28,0975	0,0393	6,5592
28,3159	0,0400	6,4883
28,5214	0,0393	6,5237
28,7333	0,0399	6,4883
28,9709	0,0391	6,5237
29,2054	0,0393	6,5237
29,4237	0,0393	6,5592
29,6164	0,0391	6,4883
29,8412	0,0390	6,4883
30,0499	0,0386	6,5237
30,2843	0,0390	6,4883
30,5059	0,0383	6,3819
30,7274	0,0383	6,4174
30,9458	0,0381	6,4883
31,1481	0,0378	6,4883
31,3408	0,0384	6,4883
31,5591	0,0380	6,5237
31,7422	0,0380	6,4883
31,9669	0,0381	6,5237
32,1500	0,0375	6,4883
32,4037	0,0373	6,4174
32,6252	0,0369	6,5237
32,8018	0,0372	6,5237
33,0395	0,0367	6,4174
33,2064	0,0372	6,5592
33,4184	0,0363	6,4883
33,6432	0,0363	6,4883
33,8230	0,0359	6,5237
33,9996	0,0354	6,4883
34,2179	0,0356	6,3819
34,4235	0,0351	6,4174
34,6065	0,0350	6,5237
34,8152	0,0347	6,4883
35,0015	0,0345	6,4174
35,1877	0,0346	6,5237
35,3708	0,0343	6,5237
35,5763	0,0340	6,5592
35,7529	0,0337	6,4174
35,9359	0,0336	6,4883
36,1222	0,0329	6,4883
36,3116	0,0329	6,4883
36,5043	0,0330	6,3819
36,6841	0,0320	6,4883
36,8607	0,0314	6,4883
37,0438	0,0312	6,5237
37,2139	0,0309	6,4883
37,3713	0,0307	6,5237
37,5158	0,0304	6,5592
37,6860	0,0298	6,5237
37,8369	0,0301	6,4174
37,9943	0,0286	6,5237
38,1484	0,0291	6,4883
38,3411	0,0282	6,5237
38,4888	0,0280	6,4883
38,6493	0,0271	6,5592
38,8003	0,0269	6,5592
38,9544	0,0264	6,5592
39,1053	0,0259	6,4883
39,2594	0,0256	6,4883
39,3975	0,0254	6,5237
39,5292	0,0243	6,5237
39,6512	0,0239	6,4174
39,7732	0,0234	6,5237
39,9081	0,0229	6,4883
40,0430	0,0222	6,4883
40,1554	0,0217	6,4174
40,2742	0,0207	6,5237
40,3577	0,0211	6,5592
40,4957	0,0201	6,5237
40,6113	0,0194	6,4174
40,7462	0,0189	6,5237
40,8425	0,0179	6,5592
40,9357	0,0177	6,4883
41,0224	0,0174	6,4883
41,1059	0,0167	6,5237
41,2150	0,0161	6,4883
41,2985	0,0153	6,4883
41,4013	0,0145	6,3819
41,4687	0,0140	6,5237
41,5586	0,0134	6,5237
41,6325	0,0129	6,4883
41,6935	0,0126	6,4883
41,7449	0,0117	6,5592
41,7995	0,0109	6,5237
41,8830	0,0110	6,4883
41,9343	0,0102	6,4883
42,0082	0,0099	6,5946
42,0756	0,0091	6,5237
42,1431	0,0091	6,4883
42,1880	0,0083	6,4883
42,2201	0,0083	6,5237

14.12.2015	15:20:30
V	I	G
[V]	[A]	[W/m²]
0,5491	0,0861	14,3593
1,0436	0,0862	14,3238
1,4964	0,0861	14,3947
2,0038	0,0861	14,3593
2,4951	0,0861	14,3947
3,0024	0,0860	14,3238
3,4680	0,0864	14,3238
3,9240	0,0857	14,3593
4,4057	0,0867	14,3238
4,8970	0,0862	14,4302
5,4011	0,0864	14,3238
5,8668	0,0862	14,3238
6,3484	0,0861	14,3593
6,8301	0,0864	14,3947
7,3310	0,0862	14,3947
7,8256	0,0860	14,3238
8,2687	0,0861	14,3593
8,7664	0,0860	14,3947
9,2577	0,0862	14,3593
9,7298	0,0861	14,3947
10,2082	0,0861	14,3593
10,6610	0,0859	14,3238
11,1427	0,0861	14,3947
11,6051	0,0861	14,3593
12,0867	0,0861	14,3947
12,5973	0,0859	14,3947
13,0597	0,0861	14,3947
13,5285	0,0860	14,2884
13,9749	0,0864	14,3593
14,4501	0,0864	14,3593
14,9671	0,0857	14,3947
15,4649	0,0868	14,3593
15,9112	0,0861	14,3238
16,3576	0,0859	14,3593
16,8874	0,0855	14,3593
17,3659	0,0861	14,3593
17,7994	0,0859	14,3947
18,2810	0,0859	14,4302
18,7627	0,0859	14,3238
19,2219	0,0857	14,3593
19,7228	0,0855	14,4302
20,1531	0,0860	14,3947
20,6701	0,0860	14,3593
21,0940	0,0860	14,3947
21,5885	0,0859	14,3593
22,0220	0,0864	14,3593
22,5358	0,0860	14,3947
22,9757	0,0855	14,3238
23,4767	0,0855	14,3947
23,9712	0,0853	14,3947
24,4240	0,0857	14,3593
24,8703	0,0853	14,4302
25,3841	0,0855	14,3593
25,8465	0,0855	14,3947
26,2639	0,0857	14,4302
26,7874	0,0857	14,3593
27,2177	0,0854	14,3947
27,7058	0,0853	14,3593
28,1746	0,0850	14,3947
28,6209	0,0846	14,4302
29,0898	0,0843	14,3593
29,5586	0,0844	14,4302
30,0114	0,0849	14,3238
30,4513	0,0837	14,3238
30,9008	0,0839	14,4302
31,3600	0,0835	14,3593
31,8192	0,0835	14,4302
32,3073	0,0828	14,4302
32,7505	0,0826	14,3238
33,1840	0,0818	14,3947
33,6078	0,0814	14,3947
34,0991	0,0814	14,3238
34,5230	0,0807	14,4302
34,9533	0,0801	14,3947
35,4093	0,0795	14,3593
35,8139	0,0789	14,4656
36,1960	0,0786	14,3947
36,6648	0,0775	14,3593
37,0759	0,0767	14,4302
37,4580	0,0757	14,3593
37,8883	0,0749	14,3947
38,3122	0,0740	14,3947
38,6686	0,0724	14,3593
39,0860	0,0713	14,4302
39,4264	0,0694	14,3593
39,8310	0,0683	14,4302
40,2292	0,0665	14,3947
40,5535	0,0646	14,3947
40,9003	0,0622	14,4302
41,2536	0,0601	14,3947
41,5361	0,0583	14,3593
41,8733	0,0556	14,3947
42,1431	0,0530	14,4302
42,4096	0,0505	14,3593
42,7018	0,0473	14,3947
42,9555	0,0446	14,3947
43,1257	0,0418	14,3947
43,3697	0,0388	14,4302
43,5399	0,0363	14,3947
43,7615	0,0325	14,4302
43,9284	0,0302	14,3593
44,0922	0,0274	14,4656
44,2078	0,0248	14,3593
44,3555	0,0221	14,3947
44,4743	0,0195	14,4302
44,5546	0,0177	14,3593
44,6702	0,0158	14,4656
44,7505	0,0137	14,3947
44,7922	0,0125	14,3238
44,8436	0,0108	14,4656
44,9175	0,0093	14,3593
44,9881	0,0081	14,3947
45,0202	0,0070	14,4302
45,0202	0,0064	14,3238
45,0620	0,0054	14,4302

14.12.2015	15:25:30
V	I	G
[V]	[A]	[W/m²]
0,4720	0,0770	12,8347
0,9344	0,0772	12,7992
1,3487	0,0778	12,7992
1,7533	0,0779	12,7992
2,2510	0,0767	12,7638
2,6652	0,0769	12,7992
3,0923	0,0769	12,7992
3,5547	0,0767	12,7992
3,9240	0,0778	12,7992
4,4153	0,0769	12,7992
4,8328	0,0772	12,7638
5,2599	0,0767	12,7638
5,6934	0,0772	12,7992
6,1140	0,0767	12,7992
6,5732	0,0768	12,7992
7,0131	0,0775	12,7638
7,4338	0,0775	12,7638
7,8512	0,0769	12,8347
8,2751	0,0769	12,7992
8,7022	0,0761	12,7992
9,1550	0,0768	12,7283
9,5981	0,0768	12,8347
10,0188	0,0772	12,7638
10,4426	0,0772	12,7992
10,8376	0,0776	12,7283
11,2647	0,0769	12,7992
11,7143	0,0768	12,8347
12,1574	0,0769	12,7992
12,5877	0,0763	12,8347
13,0180	0,0770	12,7638
13,4129	0,0773	12,7638
13,8368	0,0770	12,7992
14,2575	0,0769	12,7992
14,6814	0,0770	12,8347
15,1181	0,0767	12,7992
15,5323	0,0763	12,7992
15,9915	0,0770	12,7992
16,4218	0,0764	12,7992
16,8489	0,0769	12,7638
17,2471	0,0767	12,7992
17,6484	0,0770	12,7992
18,0916	0,0763	12,7992
18,5411	0,0769	12,7638
18,9490	0,0768	12,7992
19,3536	0,0767	12,7283
19,7871	0,0768	12,7992
20,1788	0,0770	12,7992
20,6573	0,0767	12,8347
21,0715	0,0763	12,7992
21,4890	0,0769	12,7283
21,8775	0,0769	12,7992
22,2789	0,0763	12,8347
22,7510	0,0761	12,7638
23,1523	0,0769	12,8702
23,5634	0,0764	12,7992
24,0194	0,0763	12,8347
24,4240	0,0767	12,8347
24,8125	0,0764	12,8347
25,2267	0,0767	12,7638
25,6892	0,0762	12,9411
26,1002	0,0764	12,7638
26,5112	0,0762	12,7992
26,9287	0,0764	12,7992
27,3333	0,0762	12,7992
27,7892	0,0762	12,7638
28,1585	0,0761	12,8347
28,6049	0,0758	12,8347
28,9838	0,0754	12,7283
29,4044	0,0754	12,7992
29,8508	0,0752	12,8347
30,2426	0,0749	12,7638
30,6311	0,0743	12,8347
31,0807	0,0748	12,7638
31,4403	0,0743	12,8347
31,8867	0,0734	12,7992
32,2431	0,0735	12,8347
32,6959	0,0730	12,8347
33,0587	0,0727	12,8347
33,4537	0,0726	12,7992
33,8711	0,0721	12,7992
34,2340	0,0718	12,7992
34,6450	0,0713	12,8347
35,0464	0,0709	12,7992
35,3997	0,0707	12,8347
35,7914	0,0699	12,7638
36,1671	0,0691	12,9411
36,5557	0,0684	12,7638
36,8896	0,0671	12,7992
37,3071	0,0666	12,8347
37,6250	0,0667	12,8347
37,9910	0,0656	12,8347
38,3764	0,0639	12,8347
38,6686	0,0633	12,7992
39,0379	0,0619	12,8347
39,3526	0,0610	12,7992
39,6930	0,0595	12,7992
40,0141	0,0585	12,7638
40,3031	0,0568	12,8347
40,6370	0,0552	12,7638
40,8907	0,0532	12,8347
41,2054	0,0515	12,7638
41,4527	0,0498	12,7992
41,7577	0,0472	12,7992
41,9729	0,0456	12,7638
42,2426	0,0433	12,7992
42,4417	0,0410	12,7992
42,6793	0,0386	12,7992
42,8367	0,0363	12,7992
43,0807	0,0345	12,7992
43,2092	0,0318	12,7992
43,4115	0,0294	12,7638
43,5142	0,0271	12,8347
43,6972	0,0254	12,7992
43,8321	0,0234	12,7992
43,9477	0,0207	12,7992
44,0408	0,0193	12,7992
44,1243	0,0174	12,7992
44,2239	0,0151	12,7992
44,3138	0,0140	12,7992
44,4005	0,0126	12,7992
44,4390	0,0118	12,7992
44,4968	0,0102	12,8347
44,5707	0,0088	12,7992
44,5996	0,0080	12,8347
44,6702	0,0070	12,7992
44,6734	0,0065	12,7992
44,7055	0,0053	12,7638

14.12.2015	15:30:30
V	I	G
[V]	[A]	[W/m²]
0,3468	0,0529	8,4383
0,6326	0,0529	8,4737
0,9601	0,0529	8,4383
1,2491	0,0523	8,4028
1,5317	0,0530	8,4383
1,8207	0,0529	8,5092
2,1707	0,0523	8,3674
2,4276	0,0529	8,4383
2,7744	0,0525	8,4737
3,0538	0,0527	8,4383
3,3524	0,0530	8,4028
3,6382	0,0529	8,4383
3,9690	0,0523	8,4028
4,2451	0,0527	8,5092
4,5534	0,0527	8,4383
4,8713	0,0527	8,4383
5,1154	0,0525	8,4028
5,4589	0,0530	8,5092
5,7768	0,0525	8,4028
6,0113	0,0525	8,5092
6,3709	0,0525	8,4028
6,6471	0,0527	8,5092
6,9232	0,0527	8,4028
7,2797	0,0524	8,5092
7,5494	0,0525	8,4028
7,8256	0,0529	8,4737
8,1402	0,0525	8,4028
8,4614	0,0524	8,4383
8,7054	0,0529	8,4737
9,0426	0,0523	8,4383
9,3476	0,0524	8,3674
9,5917	0,0529	8,4383
9,9224	0,0523	8,4737
10,2339	0,0530	8,4737
10,4715	0,0527	8,4737
10,8023	0,0527	8,4737
11,1170	0,0529	8,4383
11,3642	0,0531	8,4737
11,6886	0,0529	8,4383
11,9679	0,0531	8,4737
12,2505	0,0527	8,4028
12,5652	0,0530	8,5446
12,8542	0,0525	8,4383
13,1593	0,0529	8,4028
13,4611	0,0525	8,4028
13,7405	0,0525	8,5092
14,0263	0,0529	8,4383
14,3538	0,0523	8,4737
14,6203	0,0524	8,4383
14,9350	0,0527	8,4028
15,2305	0,0524	8,4737
15,5195	0,0524	8,4737
15,7699	0,0524	8,4383
16,1232	0,0524	8,4028
16,3800	0,0521	8,4383
16,6690	0,0524	8,4737
16,9741	0,0523	8,4028
17,2695	0,0527	8,4737
17,5264	0,0529	8,4737
17,8604	0,0525	8,4383
18,1398	0,0525	8,4737
18,4127	0,0523	8,4383
18,7274	0,0525	8,4383
19,0196	0,0523	8,4737
19,3086	0,0527	8,4383
19,5976	0,0523	8,5092
19,9027	0,0524	8,4383
20,1788	0,0524	8,4383
20,4710	0,0521	8,4383
20,7761	0,0527	8,4737
21,0458	0,0529	8,4028
21,3413	0,0525	8,5092
21,6463	0,0525	8,4737
21,9193	0,0527	8,4383
22,2211	0,0525	8,4383
22,4876	0,0527	8,5092
22,7991	0,0523	8,4737
23,1138	0,0521	8,4383
23,3771	0,0521	8,4737
23,6790	0,0527	8,4383
23,9519	0,0527	8,4028
24,2602	0,0524	8,4737
24,5267	0,0521	8,4383
24,8157	0,0524	8,5092
25,0822	0,0524	8,4383
25,4226	0,0519	8,4737
25,6763	0,0524	8,5092
25,9685	0,0523	8,4383
26,2736	0,0521	8,4028
26,5433	0,0525	8,4383
26,7970	0,0519	8,4737
27,1470	0,0520	8,4737
27,3878	0,0513	8,4737
27,6736	0,0514	8,5446
27,9851	0,0516	8,4028
28,2773	0,0513	8,4737
28,5053	0,0512	8,4737
28,8361	0,0507	8,4737
29,1058	0,0510	8,4737
29,3755	0,0509	8,4028
29,6164	0,0507	8,4028
29,9471	0,0510	8,4737
30,2137	0,0509	8,4737
30,4930	0,0507	8,5092
30,7852	0,0503	8,4383
31,0325	0,0497	8,5446
31,3183	0,0498	8,4383
31,6201	0,0492	8,4737
31,8481	0,0493	8,4028
32,1403	0,0493	8,4383
32,4197	0,0491	8,4383
32,6766	0,0493	8,4737
32,9431	0,0482	8,4028
33,2193	0,0485	8,4737
33,4730	0,0483	8,4737
33,7459	0,0485	8,5092
34,0124	0,0472	8,4737
34,2597	0,0472	8,4383
34,5198	0,0473	8,4737
34,8120	0,0466	8,5092
35,0079	0,0465	8,3674
35,3033	0,0460	8,4737
35,5345	0,0459	8,5092
35,8010	0,0451	8,4383
36,0258	0,0451	8,4737
36,2891	0,0445	8,5446
36,5139	0,0440	8,4028
36,7676	0,0433	8,4737
37,0149	0,0429	8,4383
37,2204	0,0423	8,4383
37,4997	0,0421	8,3674
37,7053	0,0412	8,5092
37,9300	0,0412	8,4028
38,1484	0,0404	8,4383
38,3764	0,0396	8,4383
38,5819	0,0393	8,5446
38,8003	0,0386	8,4383
39,0315	0,0377	8,4383
39,2113	0,0373	8,4737
39,3847	0,0366	8,4737
39,6191	0,0357	8,4028
39,8118	0,0347	8,5092
39,9884	0,0343	8,4737
40,1810	0,0331	8,4737
40,3480	0,0329	8,4737
40,5439	0,0316	8,4737
40,6980	0,0304	8,4028
40,8747	0,0296	8,4737
41,0256	0,0285	8,4737
41,1958	0,0274	8,4383
41,3178	0,0266	8,4028
41,4687	0,0255	8,5446
41,6325	0,0240	8,4028
41,7192	0,0236	8,4383
41,8862	0,0222	8,4737
42,0050	0,0216	8,4737
42,0981	0,0202	8,4383
42,2362	0,0193	8,4737
42,3036	0,0189	8,5092
42,4192	0,0175	8,5092
42,5380	0,0162	8,4383
42,6022	0,0156	8,5092
42,7082	0,0147	8,4737
42,7660	0,0139	8,4383
42,8527	0,0132	8,4737
42,9234	0,0126	8,4737
42,9747	0,0112	8,4737
43,0518	0,0103	8,5092
43,1192	0,0099	8,4737
43,1385	0,0090	8,4383
43,1738	0,0087	8,4737
43,2509	0,0075	8,5092
43,2991	0,0070	8,4737

14.12.2015	15:35:30
V	I	G
[V]	[A]	[W/m²]
0,2312	0,0375	5,9919
0,4496	0,0374	6,0273
0,6647	0,0378	5,9919
0,9280	0,0375	5,9919
1,1046	0,0375	5,9919
1,3712	0,0377	6,0628
1,5349	0,0377	5,9919
1,8015	0,0375	5,9919
1,9749	0,0377	5,9564
2,2382	0,0380	6,0273
2,4051	0,0374	5,9564
2,6749	0,0377	6,0273
2,8772	0,0377	5,9564
3,1084	0,0374	6,0273
3,3364	0,0377	6,0273
3,5579	0,0374	5,9564
3,7346	0,0374	5,9919
3,9722	0,0373	6,0273
4,2066	0,0375	5,9919
4,4089	0,0380	6,0273
4,6562	0,0375	5,9564
4,8328	0,0375	6,0273
5,0865	0,0377	5,9919
5,2406	0,0375	5,9919
5,5232	0,0378	5,9564
5,6773	0,0377	6,0628
5,9406	0,0377	6,0273
6,1172	0,0374	5,9210
6,3677	0,0378	5,9919
6,5764	0,0373	6,0273
6,7851	0,0377	6,0273
7,0292	0,0373	5,9919
7,2219	0,0377	5,9919
7,4595	0,0377	6,0273
7,6618	0,0378	6,0273
7,8512	0,0375	6,0273
8,0921	0,0381	5,9919
8,2976	0,0374	6,0273
8,5063	0,0377	5,9919
8,7215	0,0377	5,9919
8,9206	0,0380	5,9564
9,1550	0,0377	6,0273
9,3476	0,0375	6,0273
9,5788	0,0373	6,0273
9,7683	0,0377	5,9210
10,0188	0,0375	6,0273
10,2050	0,0375	5,9919
10,4266	0,0378	6,0628
10,6610	0,0380	5,9564
10,8665	0,0374	6,0273
11,0881	0,0377	5,9919
11,2904	0,0377	6,0273
11,5087	0,0373	5,9919
11,7110	0,0375	6,0273
11,9358	0,0372	5,9919
12,1510	0,0378	6,0628
12,3790	0,0378	5,9919
12,5170	0,0377	5,9919
12,8157	0,0373	5,9564
12,9634	0,0377	6,0273
13,2235	0,0378	6,0628
13,4065	0,0375	5,9564
13,6602	0,0373	5,9564
13,8561	0,0374	6,0628
14,0616	0,0372	6,0273
14,3024	0,0373	5,9564
14,4983	0,0377	5,9919
14,7103	0,0374	6,0628
14,9093	0,0377	5,9919
15,1277	0,0378	5,9919
15,3139	0,0373	5,9919
15,5419	0,0375	6,0273
15,7378	0,0380	6,0273
15,9787	0,0375	5,9564
16,1199	0,0372	5,9919
16,4057	0,0372	6,0273
16,5599	0,0380	5,9919
16,8103	0,0375	6,0273
16,9773	0,0378	5,9919
17,2278	0,0373	6,0273
17,4718	0,0369	5,9919
17,6517	0,0372	6,0273
17,8796	0,0373	5,9919
18,0884	0,0372	6,0628
18,2810	0,0375	5,9919
18,4801	0,0375	6,0273
18,7113	0,0375	5,9919
18,9201	0,0374	6,0628
19,1320	0,0373	5,9919
19,3439	0,0374	6,0273
19,5430	0,0375	5,9919
19,7357	0,0373	6,0273
19,9797	0,0369	6,0273
20,1531	0,0377	5,9919
20,4132	0,0373	5,9919
20,5899	0,0374	5,9919
20,8050	0,0373	6,0273
21,0073	0,0375	6,0628
21,2257	0,0375	5,9564
21,4344	0,0372	5,9919
21,6335	0,0375	6,0273
21,8583	0,0374	6,0273
22,0734	0,0369	5,9564
22,2853	0,0375	6,0273
22,4844	0,0369	6,0273
22,7092	0,0372	6,0628
22,8858	0,0375	5,9564
23,1331	0,0369	5,9919
23,2904	0,0377	6,0273
23,5570	0,0377	5,9919
23,7304	0,0375	5,9919
23,9551	0,0367	5,9919
24,1350	0,0373	6,0273
24,3790	0,0373	6,0273
24,5877	0,0375	5,9564
24,7804	0,0369	6,0273
25,0180	0,0372	5,9919
25,1914	0,0374	6,0628
25,4066	0,0369	5,9919
25,6153	0,0372	5,9919
25,8465	0,0367	6,0273
26,0263	0,0372	6,0273
26,2607	0,0368	5,9919
26,4052	0,0369	6,0273
26,6653	0,0369	6,0273
26,8355	0,0369	6,0628
27,0635	0,0368	6,0628
27,2530	0,0367	5,9564
27,4553	0,0372	5,9564
27,6608	0,0366	6,0628
27,8792	0,0366	5,9919
28,0750	0,0366	6,0273
28,2902	0,0367	5,9564
28,4861	0,0364	6,0628
28,6916	0,0363	5,9919
28,8971	0,0358	6,0273
29,0705	0,0362	5,9919
29,3113	0,0362	5,9919
29,4687	0,0357	5,9919
29,7063	0,0357	6,0273
29,8701	0,0358	5,9919
30,0884	0,0354	6,0273
30,2490	0,0350	6,0273
30,4866	0,0354	6,0273
30,6439	0,0354	5,9919
30,8880	0,0350	6,0628
31,0229	0,0351	6,0273
31,2830	0,0353	5,9919
31,4467	0,0347	5,9919
31,6587	0,0346	6,0273
31,8353	0,0346	6,0273
32,0215	0,0347	5,9919
32,2238	0,0340	5,9919
32,4197	0,0341	6,0273
32,5995	0,0341	6,0273
32,7697	0,0337	6,0273
32,9720	0,0340	5,9919
33,1615	0,0335	5,9919
33,3413	0,0335	6,0273
33,5019	0,0330	6,0628
33,7202	0,0329	6,0273
33,8936	0,0328	5,9919
34,0831	0,0325	6,0273
34,2404	0,0320	5,9919
34,4492	0,0319	6,0628
34,5872	0,0321	6,0628
34,7992	0,0323	5,9919
34,9629	0,0314	6,0273
35,1235	0,0312	5,9919
35,3001	0,0312	6,0628
35,4799	0,0309	5,9919
35,6565	0,0307	6,0273
35,8107	0,0303	5,9919
36,0162	0,0299	6,0273
36,1318	0,0296	6,0273
36,3373	0,0292	5,9919
36,4625	0,0293	6,0273
36,6520	0,0291	5,9919
36,7804	0,0287	5,9919
36,9667	0,0289	5,9919
37,0951	0,0277	6,0273
37,2653	0,0274	6,0273
37,4387	0,0274	6,0628
37,5961	0,0266	5,9919
37,7277	0,0266	5,9919
37,8947	0,0261	6,0273
37,9718	0,0258	6,0273
38,1869	0,0253	6,0628
38,2993	0,0256	5,9564
38,4502	0,0245	6,0273
38,5466	0,0245	5,9919
38,6911	0,0243	5,9919
38,8677	0,0229	6,0628
38,9576	0,0229	6,0273
39,1021	0,0226	5,9919
39,2081	0,0221	6,0273
39,3590	0,0221	5,9919
39,4489	0,0212	6,0273
39,6030	0,0210	5,9919
39,7090	0,0210	6,0983
39,8503	0,0204	6,0273
39,9274	0,0197	5,9564
40,0622	0,0189	6,0273
40,1489	0,0184	6,0273
40,2549	0,0177	6,0628
40,3641	0,0173	5,9564
40,4283	0,0166	5,9919
40,5600	0,0166	6,0628
40,6274	0,0158	5,9919
40,7430	0,0155	6,0273
40,8072	0,0153	5,9919
40,8907	0,0145	6,0273
40,9774	0,0145	6,0983
41,0545	0,0139	5,9919
41,1283	0,0135	5,9919
41,2279	0,0126	6,0273
41,2793	0,0120	6,0273
41,3756	0,0110	5,9919
41,4173	0,0108	5,9919
41,4944	0,0108	5,9919
41,5458	0,0105	6,0628
41,6100	0,0097	5,9919
41,6871	0,0098	5,9919
41,7128	0,0093	6,0273
41,7802	0,0087	5,9919
41,8251	0,0083	6,0628

14.12.2015	15:40:30
V	I	G
[V]	[A]	[W/m²]
0,2762	0,0443	7,0555
0,5363	0,0443	7,0910
0,7996	0,0443	7,0555
1,0533	0,0442	7,0201
1,3230	0,0445	7,0201
1,5799	0,0438	7,1264
1,8079	0,0438	7,0555
2,0808	0,0443	7,0555
2,3441	0,0440	7,0555
2,5914	0,0443	7,0201
2,8515	0,0440	7,0555
3,1020	0,0439	7,0555
3,3556	0,0443	7,0201
3,5933	0,0442	7,0555
3,8726	0,0442	7,0910
4,1167	0,0443	7,0555
4,3607	0,0442	7,0555
4,6337	0,0442	7,0201
4,8713	0,0440	7,1264
5,1314	0,0445	7,0555
5,3466	0,0445	7,0201
5,6388	0,0442	7,0201
5,8892	0,0439	7,0555
6,1301	0,0439	7,0910
6,3966	0,0440	7,0555
6,6406	0,0438	7,0555
6,8879	0,0439	7,0555
7,1223	0,0443	7,0910
7,3921	0,0443	7,0910
7,6361	0,0442	7,0910
7,8673	0,0440	7,0201
8,1338	0,0439	7,1264
8,3811	0,0438	7,0910
8,6380	0,0435	7,0201
8,8692	0,0439	7,0555
9,1357	0,0440	7,0910
9,3798	0,0438	7,0555
9,5853	0,0439	7,0555
9,8646	0,0435	7,0555
10,1183	0,0437	7,0555
10,3559	0,0440	7,0910
10,6096	0,0440	7,0555
10,8601	0,0442	7,0555
11,1073	0,0438	7,0910
11,3096	0,0442	7,0910
11,6083	0,0438	7,0555
11,8652	0,0437	7,0910
12,1028	0,0438	7,0555
12,3629	0,0440	7,0555
12,6166	0,0439	7,0555
12,8446	0,0440	7,1264
13,0758	0,0439	7,0555
13,3327	0,0442	7,0201
13,5767	0,0435	7,0555
13,8015	0,0443	7,0910
14,0809	0,0438	7,0555
14,3121	0,0437	7,0555
14,5593	0,0438	7,0910
14,8098	0,0440	7,0201
15,0603	0,0440	7,0555
15,3204	0,0438	7,1264
15,5387	0,0438	7,0555
15,8085	0,0440	7,0555
16,0461	0,0435	7,0555
16,2966	0,0440	7,0910
16,5374	0,0438	7,1264
16,7975	0,0438	7,0910
17,0287	0,0437	7,0555
17,2342	0,0438	7,0555
17,5136	0,0435	7,1264
17,7544	0,0437	7,0201
17,9985	0,0433	7,0201
18,2489	0,0438	7,1264
18,4930	0,0439	7,1264
18,7306	0,0438	7,0555
18,9650	0,0432	7,0910
19,2283	0,0440	7,1264
19,4756	0,0440	7,0910
19,7004	0,0439	7,0201
19,9605	0,0439	7,1264
20,2174	0,0437	7,1264
20,4454	0,0437	7,0910
20,6958	0,0443	7,0555
20,9463	0,0440	7,1619
21,1936	0,0433	7,0555
21,4215	0,0440	7,0555
21,6752	0,0437	7,0910
21,9193	0,0438	7,1264
22,1440	0,0435	7,0910
22,4042	0,0437	7,0910
22,6482	0,0439	7,0910
22,8922	0,0435	7,1264
23,0978	0,0440	7,0201
23,3836	0,0432	7,0555
23,6212	0,0439	7,0910
23,8524	0,0435	7,1619
24,1093	0,0438	7,0555
24,3405	0,0437	7,0910
24,6006	0,0438	7,0555
24,7965	0,0432	7,1264
25,0790	0,0432	7,1264
25,3102	0,0437	6,9492
25,5479	0,0438	7,1264
25,8080	0,0437	7,1264
26,0327	0,0435	7,0201
26,2768	0,0435	7,0555
26,5112	0,0432	7,1264
26,7585	0,0435	7,0555
27,0057	0,0432	7,0201
27,2305	0,0428	7,0555
27,4713	0,0428	7,1264
27,7186	0,0424	7,0910
27,9562	0,0428	7,0555
28,1971	0,0427	7,0910
28,4250	0,0427	7,1264
28,6659	0,0421	7,0555
28,8746	0,0429	7,0910
29,1251	0,0422	7,0910
29,3627	0,0424	7,1264
29,6067	0,0422	7,0910
29,8412	0,0422	7,0910
30,0724	0,0422	7,0910
30,2971	0,0420	7,0555
30,5091	0,0420	7,0555
30,7595	0,0417	7,1264
31,0004	0,0418	7,0910
31,2091	0,0411	7,0555
31,4499	0,0406	7,0555
31,6811	0,0411	7,0555
31,9156	0,0408	7,0910
32,1114	0,0405	7,1264
32,3587	0,0406	7,0910
32,5835	0,0401	7,0555
32,7858	0,0400	7,1264
33,0202	0,0399	7,0555
33,2321	0,0396	7,1264
33,4633	0,0395	7,0910
33,6817	0,0396	7,0910
33,9000	0,0396	7,0910
34,1088	0,0390	7,0910
34,3014	0,0386	7,0910
34,5423	0,0385	7,0555
34,7606	0,0384	7,0910
34,9597	0,0377	7,0910
35,1652	0,0378	7,1264
35,3836	0,0372	7,0555
35,5859	0,0368	7,0910
35,7625	0,0372	7,0910
35,9969	0,0367	7,0910
36,1960	0,0363	7,0910
36,3790	0,0362	7,0910
36,5846	0,0350	7,1264
36,7772	0,0351	7,0910
36,9571	0,0348	7,1264
37,1497	0,0350	7,0555
37,3520	0,0339	7,0910
37,5479	0,0332	7,0910
37,7213	0,0331	7,0910
37,9140	0,0330	7,0910
38,0874	0,0318	7,0555
38,2511	0,0320	7,0555
38,4310	0,0316	7,0910
38,6044	0,0304	7,0555
38,7778	0,0298	7,0555
38,9159	0,0299	7,0201
39,0957	0,0289	7,1264
39,2627	0,0285	7,0555
39,4072	0,0277	7,1264
39,5773	0,0274	7,1264
39,7154	0,0269	7,0910
39,8599	0,0261	7,0555
40,0012	0,0253	7,1264
40,1521	0,0254	7,1264
40,2838	0,0244	7,0910
40,4155	0,0237	7,0910
40,5471	0,0229	7,0910
40,6723	0,0226	7,0555
40,8040	0,0218	7,0910
40,9036	0,0212	7,0555
41,0352	0,0202	7,0910
41,1476	0,0195	7,0910
41,2504	0,0190	7,0910
41,3499	0,0184	7,0555
41,4591	0,0173	7,0555
41,5586	0,0169	7,0910
41,6293	0,0166	7,1264
41,7352	0,0156	7,0201
41,8123	0,0146	7,0555
41,8894	0,0146	7,1264
41,9793	0,0139	7,0910
42,0564	0,0132	7,0555
42,1270	0,0119	7,1619
42,1816	0,0117	7,1264
42,2554	0,0114	7,0201
42,3132	0,0102	7,0555
42,3646	0,0102	7,1619
42,4417	0,0093	7,0910
42,4899	0,0091	7,0555
42,5412	0,0085	7,0910
42,5830	0,0080	7,1619
42,6408	0,0072	7,0555

14.12.2015	15:45:30
V	I	G
[V]	[A]	[W/m²]
0,2922	0,0456	7,4101
0,5620	0,0460	7,4455
0,8285	0,0461	7,4101
1,0725	0,0458	7,4455
1,3840	0,0456	7,4101
1,6056	0,0460	7,4455
1,9042	0,0460	7,4455
2,1611	0,0459	7,4101
2,3955	0,0460	7,4101
2,6941	0,0460	7,4101
2,9671	0,0458	7,4455
3,2208	0,0460	7,4455
3,4905	0,0460	7,4101
3,7410	0,0458	7,4101
3,9497	0,0456	7,3746
4,2676	0,0458	7,4810
4,5181	0,0464	7,4455
4,7974	0,0456	7,4101
4,9965	0,0464	7,4101
5,3273	0,0460	7,4810
5,5681	0,0458	7,4101
5,8475	0,0456	7,3746
6,1044	0,0458	7,3746
6,3741	0,0460	7,4101
6,6150	0,0461	7,4455
6,8301	0,0455	7,4455
7,1448	0,0460	7,3746
7,3888	0,0459	7,4101
7,6618	0,0461	7,4455
7,9283	0,0461	7,4810
8,1756	0,0460	7,4101
8,4549	0,0456	7,3746
8,7118	0,0458	7,3746
8,9687	0,0456	7,4455
9,1871	0,0460	7,4101
9,4665	0,0458	7,4101
9,6848	0,0456	7,4455
9,9963	0,0461	7,4455
10,2371	0,0455	7,4101
10,5101	0,0454	7,4810
10,7541	0,0459	7,4455
11,0206	0,0458	7,3746
11,2904	0,0461	7,4455
11,5537	0,0461	7,4455
11,8042	0,0455	7,4101
12,0546	0,0461	7,4101
12,3115	0,0459	7,4455
12,5395	0,0460	7,4455
12,8285	0,0456	7,4101
13,0758	0,0456	7,4455
13,3455	0,0456	7,4455
13,6185	0,0458	7,4101
13,8689	0,0458	7,4101
14,1226	0,0454	7,4810
14,3859	0,0458	7,4455
14,6171	0,0461	7,4101
14,8612	0,0454	7,4455
15,1438	0,0458	7,4455
15,3493	0,0460	7,4101
15,6607	0,0454	7,4455
15,9048	0,0458	7,4455
16,1681	0,0454	7,4455
16,4186	0,0460	7,4101
16,6755	0,0454	7,4455
16,9292	0,0455	7,4455
17,1732	0,0458	7,4101
17,4494	0,0458	7,4810
17,6773	0,0458	7,4455
17,9599	0,0458	7,4101
18,1911	0,0456	7,4455
18,4673	0,0459	7,4455
18,7145	0,0455	7,4101
18,9714	0,0456	7,4101
19,2219	0,0460	7,4455
19,4756	0,0455	7,4455
19,7261	0,0461	7,4101
19,9765	0,0455	7,4101
20,2495	0,0460	7,4455
20,4903	0,0458	7,4455
20,7472	0,0451	7,4455
20,9784	0,0460	7,4810
21,2578	0,0455	7,4101
21,5115	0,0455	7,4455
21,7683	0,0456	7,4455
22,0220	0,0458	7,4455
22,2853	0,0455	7,4101
22,5262	0,0458	7,4455
22,7831	0,0458	7,4810
23,0271	0,0459	7,4455
23,2615	0,0455	7,4455
23,5505	0,0458	7,4455
23,7689	0,0460	7,4455
24,0450	0,0451	7,4455
24,2891	0,0454	7,4455
24,5492	0,0455	7,4455
24,8061	0,0458	7,4455
25,0533	0,0456	7,4455
25,3070	0,0455	7,4101
25,5575	0,0454	7,4455
25,8080	0,0455	7,4455
26,0456	0,0451	7,4810
26,3121	0,0446	7,4810
26,5465	0,0458	7,4101
26,8098	0,0448	7,4810
27,0539	0,0449	7,4810
27,3172	0,0445	7,4455
27,5580	0,0446	7,3746
27,7957	0,0448	7,4455
28,0718	0,0446	7,4455
28,2966	0,0446	7,4455
28,5631	0,0445	7,4455
28,7847	0,0450	7,4810
29,0544	0,0445	7,4810
29,2599	0,0443	7,4455
29,5361	0,0446	7,4101
29,7705	0,0443	7,4810
30,0210	0,0432	7,4810
30,2650	0,0437	7,3746
30,4994	0,0438	7,4455
30,7563	0,0433	7,4810
30,9908	0,0433	7,4810
31,2220	0,0428	7,4101
31,4756	0,0433	7,4810
31,6972	0,0427	7,4455
31,9188	0,0431	7,4810
32,1853	0,0424	7,4455
32,4004	0,0422	7,4101
32,6445	0,0418	7,4810
32,8661	0,0421	7,4455
33,1133	0,0417	7,4455
33,3317	0,0413	7,4810
33,5725	0,0412	7,4810
33,7941	0,0413	7,4810
34,0124	0,0413	7,4101
34,2469	0,0406	7,4455
34,4459	0,0408	7,4810
34,6900	0,0401	7,4101
34,8891	0,0401	7,4455
35,1331	0,0395	7,4455
35,3483	0,0394	7,4455
35,5698	0,0390	7,4455
35,7754	0,0388	7,4455
36,0001	0,0386	7,4810
36,1992	0,0384	7,4101
36,4176	0,0381	7,4810
36,6103	0,0377	7,4810
36,8158	0,0366	7,4455
37,0020	0,0367	7,4810
37,2204	0,0364	7,4455
37,4291	0,0357	7,4101
37,6121	0,0353	7,4455
37,8080	0,0347	7,4810
38,0007	0,0346	7,4101
38,2062	0,0337	7,4455
38,3732	0,0337	7,5519
38,5466	0,0331	7,4810
38,7425	0,0323	7,4101
38,8966	0,0318	7,4101
39,0893	0,0312	7,4810
39,2530	0,0313	7,4455
39,4232	0,0293	7,4101
39,5902	0,0298	7,4810
39,7572	0,0285	7,4810
39,9081	0,0280	7,3746
40,0687	0,0274	7,4455
40,1971	0,0269	7,4810
40,3577	0,0258	7,4810
40,4957	0,0250	7,4455
40,6145	0,0247	7,5519
40,7687	0,0240	7,4810
40,8843	0,0231	7,4455
41,0224	0,0227	7,4455
41,1476	0,0218	7,4455
41,2632	0,0206	7,5519
41,3756	0,0204	7,4810
41,4944	0,0193	7,4101
41,5907	0,0184	7,4810
41,6967	0,0184	7,5519
41,8027	0,0173	7,4455
41,8637	0,0172	7,4810
41,9825	0,0152	7,4810
42,0467	0,0152	7,4455
42,1495	0,0144	7,4455
42,2137	0,0137	7,4455
42,2940	0,0130	7,4455
42,3582	0,0125	7,4810
42,4321	0,0115	7,4455
42,5027	0,0109	7,4455
42,5444	0,0105	7,4455
42,6247	0,0096	7,4455
42,6536	0,0097	7,4101
42,7243	0,0083	7,5519
42,7628	0,0083	7,4810
42,8110	0,0071	7,4455

14.12.2015	15:50:30
V	I	G
[V]	[A]	[W/m²]
0,2505	0,0402	6,3464
0,4913	0,0402	6,4174
0,7354	0,0402	6,3464
0,9762	0,0404	6,4883
1,1945	0,0401	6,3464
1,4450	0,0402	6,3819
1,6794	0,0404	6,3464
1,8560	0,0405	6,3819
2,1547	0,0401	6,4174
2,3570	0,0408	6,4174
2,5400	0,0402	6,3464
2,8483	0,0402	6,4174
3,0859	0,0401	6,3819
3,3075	0,0404	6,4883
3,5547	0,0402	6,3464
3,7891	0,0404	6,3819
3,9915	0,0404	6,3464
4,2548	0,0404	6,3819
4,4699	0,0402	6,3819
4,6915	0,0406	6,4174
4,9387	0,0399	6,3819
5,1764	0,0404	6,3819
5,3883	0,0405	6,3819
5,6388	0,0404	6,4883
5,8314	0,0401	6,3819
6,0915	0,0405	6,4174
6,2778	0,0401	6,4174
6,4769	0,0404	6,4883
6,7787	0,0402	6,3464
7,0163	0,0402	6,3819
7,1801	0,0405	6,3819
7,4723	0,0396	6,4174
7,7100	0,0401	6,3819
7,8801	0,0404	6,4174
8,1467	0,0401	6,3464
8,3715	0,0399	6,4174
8,5962	0,0404	6,3819
8,8467	0,0401	6,4174
9,0683	0,0401	6,3819
9,2834	0,0399	6,4174
9,5146	0,0405	6,4174
9,7490	0,0404	6,3819
9,9770	0,0400	6,3464
10,1986	0,0401	6,5237
10,3784	0,0399	6,3819
10,6578	0,0399	6,4174
10,8954	0,0399	6,3819
11,0592	0,0405	6,4883
11,3000	0,0399	6,3464
11,5537	0,0400	6,4883
11,7143	0,0402	6,3819
12,0161	0,0402	6,3819
12,2505	0,0402	6,4174
12,4528	0,0402	6,3819
12,6969	0,0399	6,3819
12,9377	0,0402	6,4174
13,1015	0,0402	6,4174
13,3680	0,0399	6,4883
13,5639	0,0401	6,3819
13,8272	0,0400	6,3819
14,0680	0,0401	6,3464
14,2800	0,0404	6,3819
14,5112	0,0402	6,3819
14,7392	0,0401	6,4174
14,8965	0,0402	6,3819
15,1566	0,0401	6,4174
15,4103	0,0395	6,3464
15,5098	0,0404	6,4174
15,8727	0,0399	6,3819
16,0910	0,0402	6,3819
16,2516	0,0406	6,3819
16,5310	0,0396	6,4883
16,7525	0,0401	6,3819
16,9613	0,0400	6,3819
17,1700	0,0406	6,4174
17,4333	0,0401	6,4174
17,6420	0,0402	6,3464
17,8507	0,0399	6,3819
18,0980	0,0394	6,4174
18,3228	0,0399	6,4883
18,5444	0,0395	6,3819
18,7659	0,0402	6,4174
18,9875	0,0399	6,4174
19,2251	0,0394	6,4883
19,4114	0,0402	6,3464
19,6650	0,0402	6,3819
19,8962	0,0399	6,4174
20,0472	0,0402	6,5237
20,3233	0,0395	6,3464
20,5513	0,0400	6,3819
20,7311	0,0402	6,4883
21,0073	0,0401	6,4174
21,2385	0,0402	6,3464
21,4376	0,0400	6,3819
21,4729	0,0878	6,4174
21,9064	0,0400	6,4883
22,1023	0,0401	6,3464
22,3560	0,0400	6,3819
22,5615	0,0399	6,3464
22,7831	0,0402	6,4883
23,0207	0,0401	6,3819
23,2358	0,0399	6,4174
23,4638	0,0395	6,4174
23,6950	0,0400	6,4883
23,8684	0,0395	6,3464
24,1317	0,0399	6,4174
24,3533	0,0399	6,4174
24,5331	0,0396	6,4174
24,7965	0,0395	6,3464
25,0116	0,0399	6,4174
25,2043	0,0396	6,4174
25,4515	0,0395	6,4883
25,6731	0,0396	6,3464
25,8915	0,0400	6,3819
26,0777	0,0394	6,4174
26,3282	0,0399	6,4174
26,5369	0,0396	6,3819
26,7424	0,0395	6,4883
26,9993	0,0388	6,4174
27,2112	0,0394	6,4883
27,4489	0,0394	6,3819
27,6447	0,0393	6,3819
27,8727	0,0393	6,3819
28,0847	0,0390	6,4174
28,2645	0,0394	6,4174
28,5053	0,0388	6,3819
28,7365	0,0390	6,4174
28,8939	0,0385	6,4883
29,1508	0,0384	6,3464
29,3691	0,0386	6,4174
29,5457	0,0383	6,4883
29,7577	0,0380	6,4883
30,0210	0,0383	6,3819
30,2104	0,0378	6,4883
30,4192	0,0381	6,4174
30,6439	0,0375	6,4883
30,7981	0,0383	6,4174
31,0678	0,0378	6,3819
31,2669	0,0375	6,3819
31,4467	0,0373	6,3819
31,6908	0,0373	6,3819
31,8995	0,0372	6,4883
32,0954	0,0367	6,3819
32,3041	0,0368	6,4174
32,4775	0,0366	6,3819
32,6894	0,0366	6,4883
32,9046	0,0363	6,3819
33,0587	0,0359	6,5237
33,3188	0,0356	6,3464
33,5019	0,0359	6,4883
33,6656	0,0358	6,4174
33,9033	0,0351	6,4883
34,0895	0,0353	6,3819
34,2212	0,0350	6,3819
34,4781	0,0345	6,4174
34,6675	0,0346	6,4174
34,8377	0,0347	6,3819
35,0496	0,0343	6,4883
35,2423	0,0339	6,3819
35,3868	0,0336	6,4174
35,6212	0,0331	6,3819
35,8010	0,0328	6,4883
35,9744	0,0329	6,3819
36,1511	0,0325	6,4174
36,2988	0,0320	6,4174
36,5075	0,0316	6,4883
36,6841	0,0313	6,3819
36,7997	0,0307	6,3819
37,0277	0,0304	6,3819
37,1979	0,0307	6,4174
37,3199	0,0303	6,3819
37,5415	0,0289	6,4174
37,6956	0,0294	6,4174
37,8530	0,0291	6,4883
38,0264	0,0286	6,3819
38,1837	0,0280	6,4174
38,3025	0,0277	6,3819
38,4888	0,0272	6,4174
38,6301	0,0266	6,3819
38,7874	0,0263	6,4883
38,9255	0,0261	6,4174
39,0668	0,0253	6,4174
39,2049	0,0255	6,3819
39,3494	0,0245	6,4883
39,4778	0,0243	6,3819
39,6127	0,0234	6,4174
39,7443	0,0232	6,4174
39,8150	0,0229	6,4174
39,9948	0,0216	6,4174
40,1072	0,0213	6,4883
40,2035	0,0209	6,3819
40,3641	0,0204	6,4174
40,4668	0,0197	6,3819
40,5471	0,0190	6,4174
40,6723	0,0185	6,3464
40,7687	0,0184	6,4174
40,8682	0,0179	6,4174
40,9870	0,0173	6,4174
41,0737	0,0172	6,4174
41,1572	0,0157	6,4883
41,2536	0,0151	6,3819
41,3403	0,0140	6,3819
41,4141	0,0139	6,3819
41,4912	0,0132	6,4174
41,5618	0,0134	6,3464
41,6453	0,0126	6,3819
41,7160	0,0117	6,3819
41,7384	0,0117	6,3819
41,8476	0,0110	6,3819
41,9151	0,0101	6,4174
41,9375	0,0101	6,4174
42,0242	0,0093	6,4174
42,0820	0,0091	6,3819
42,1238	0,0085	6,4174
42,1463	0,0081	6,4174
42,2426	0,0079	6,4174

14.12.2015	15:55:30
V	I	G
[V]	[A]	[W/m²]
0,1991	0,0286	4,4319
0,3564	0,0293	4,4319
0,5363	0,0287	4,4319
0,7161	0,0287	4,4319
0,8991	0,0287	4,4673
1,0565	0,0289	4,3964
1,2363	0,0282	4,4319
1,4097	0,0287	4,4319
1,5670	0,0291	4,4673
1,7372	0,0291	4,4673
1,9203	0,0285	4,3964
2,1001	0,0287	4,4319
2,2671	0,0291	4,4673
2,4212	0,0285	4,3964
2,6139	0,0292	4,3964
2,7584	0,0285	4,3964
2,9318	0,0286	4,4319
3,0955	0,0292	4,4319
3,2914	0,0285	4,4319
3,4616	0,0293	4,4319
3,6318	0,0292	4,4319
3,7891	0,0291	4,3964
3,9497	0,0285	4,4673
4,1360	0,0287	4,4319
4,2901	0,0289	4,4319
4,4442	0,0289	4,3964
4,6208	0,0285	4,4673
4,7974	0,0287	4,3964
4,9612	0,0291	4,3964
5,1186	0,0289	4,3610
5,2984	0,0291	4,4673
5,4814	0,0285	4,4319
5,6420	0,0286	4,4319
5,7865	0,0289	4,3964
5,9759	0,0287	4,4319
6,1333	0,0291	4,3964
6,3099	0,0287	4,4319
6,4705	0,0286	4,3964
6,6567	0,0287	4,4673
6,8140	0,0285	4,4319
6,9778	0,0285	4,4673
7,1416	0,0286	4,4319
7,3021	0,0286	4,4319
7,4723	0,0289	4,3964
7,6361	0,0286	4,4673
7,7838	0,0282	4,3964
7,9765	0,0292	4,3964
8,1435	0,0282	4,3964
8,3104	0,0282	4,4673
8,4549	0,0285	4,3964
8,6316	0,0286	4,4319
8,8050	0,0282	4,3610
8,9591	0,0283	4,4673
9,1164	0,0287	4,4319
9,2931	0,0287	4,4319
9,4665	0,0285	4,3610
9,6366	0,0285	4,3964
9,7844	0,0289	4,3964
9,9545	0,0280	4,4673
10,1151	0,0286	4,4319
10,2853	0,0289	4,3610
10,4426	0,0286	4,3964
10,6000	0,0286	4,4673
10,7830	0,0283	4,4319
10,9436	0,0287	4,4319
11,1073	0,0285	4,3964
11,2743	0,0285	4,4673
11,4317	0,0286	4,3964
11,6051	0,0282	4,3964
11,7399	0,0282	4,4319
11,9166	0,0286	4,4319
12,0900	0,0283	4,4319
12,2377	0,0286	4,4319
12,4175	0,0287	4,4319
12,5941	0,0283	4,4319
12,7643	0,0285	4,4319
12,9056	0,0289	4,4319
13,0629	0,0287	4,4319
13,2331	0,0286	4,4319
13,3840	0,0287	4,4319
13,5671	0,0291	4,4319
13,7212	0,0286	4,4319
13,8978	0,0285	4,4319
14,0455	0,0285	4,3964
14,2029	0,0285	4,4319
14,3795	0,0287	4,3964
14,5561	0,0291	4,4673
14,7135	0,0285	4,4319
14,8837	0,0285	4,4319
15,0346	0,0291	4,3964
15,2016	0,0289	4,4319
15,3685	0,0285	4,3964
15,5355	0,0287	4,4673
15,6672	0,0286	4,3964
15,8502	0,0286	4,3964
16,0236	0,0283	4,3964
16,1681	0,0287	4,4319
16,3351	0,0286	4,3964
16,5117	0,0282	4,3964
16,6787	0,0283	4,4319
16,8264	0,0286	4,4673
16,9773	0,0287	4,3610
17,1571	0,0285	4,3964
17,3209	0,0287	4,3964
17,5007	0,0281	4,4319
17,6452	0,0286	4,4319
17,8186	0,0282	4,4319
17,9664	0,0286	4,3964
18,1301	0,0285	4,4673
18,2778	0,0286	4,4319
18,4544	0,0287	4,4319
18,6311	0,0285	4,4319
18,7723	0,0282	4,4319
18,9233	0,0286	4,4319
19,0581	0,0286	4,4673
19,2604	0,0285	4,4319
19,4210	0,0282	4,4319
19,5687	0,0291	4,4673
19,7550	0,0289	4,4319
19,9187	0,0285	4,4319
20,0857	0,0285	4,4673
20,2045	0,0285	4,4673
20,3587	0,0283	4,4673
20,5642	0,0285	4,4319
20,7279	0,0285	4,4319
20,8756	0,0286	4,4319
21,0555	0,0285	4,4319
21,2032	0,0289	4,4319
21,3670	0,0289	4,4673
21,5147	0,0282	4,3964
21,6816	0,0285	4,4319
21,8358	0,0289	4,4319
22,0060	0,0283	4,4673
22,1633	0,0285	4,4319
22,3335	0,0286	4,4673
22,4941	0,0283	4,4319
22,6610	0,0286	4,3964
22,8120	0,0283	4,4319
22,9822	0,0283	4,4319
23,1491	0,0282	4,3964
23,3097	0,0285	4,4319
23,4510	0,0285	4,4319
23,6372	0,0283	4,4319
23,7946	0,0285	4,4319
23,9519	0,0283	4,4319
24,0739	0,0275	4,3964
24,2634	0,0281	4,4673
24,4272	0,0283	4,4319
24,5781	0,0280	4,4319
24,7322	0,0283	4,3964
24,8992	0,0282	4,4319
25,0341	0,0281	4,3964
25,2332	0,0281	4,4319
25,3777	0,0283	4,4319
25,5447	0,0274	4,4319
25,6924	0,0276	4,3964
25,8240	0,0281	4,3610
26,0071	0,0280	4,4319
26,1740	0,0281	4,4673
26,3314	0,0276	4,3964
26,4887	0,0277	4,3964
26,6461	0,0276	4,4319
26,7970	0,0274	4,4319
26,9640	0,0275	4,4319
27,1053	0,0280	4,4319
27,2690	0,0274	4,4673
27,4296	0,0275	4,4673
27,5869	0,0280	4,4319
27,7314	0,0277	4,4319
27,8727	0,0276	4,4319
28,0365	0,0275	4,5028
28,2163	0,0274	4,4319
28,3383	0,0276	4,4319
28,4989	0,0274	4,3964
28,6659	0,0267	4,4673
28,8200	0,0277	4,3964
28,9453	0,0267	4,4673
29,1122	0,0267	4,4673
29,2824	0,0264	4,3964
29,3820	0,0269	4,4319
29,5522	0,0266	4,4319
29,7288	0,0264	4,3964
29,8925	0,0266	4,4319
30,0242	0,0265	4,4319
30,1526	0,0265	4,4319
30,3421	0,0263	4,4319
30,4770	0,0261	4,3964
30,6022	0,0266	4,3610
30,7499	0,0263	4,4673
30,9265	0,0263	4,4319
31,0646	0,0263	4,4673
31,2187	0,0258	4,3964
31,2894	0,0256	4,4673
31,4724	0,0261	4,4319
31,6555	0,0256	4,4673
31,8096	0,0250	4,4673
31,9156	0,0258	4,4673
32,0793	0,0255	4,3610
32,2335	0,0250	4,4319
32,3491	0,0254	4,4319
32,4807	0,0250	4,4673
32,6445	0,0248	4,3610
32,7954	0,0249	4,3964
32,9206	0,0248	4,3964
33,0362	0,0247	4,4319
33,1808	0,0247	4,3964
33,3349	0,0245	4,4319
33,4826	0,0244	4,4319
33,5854	0,0240	4,4319
33,7459	0,0237	4,3964
33,8776	0,0237	4,4673
34,0060	0,0236	4,3964
34,0638	0,0236	4,4319
34,2950	0,0237	4,3964
34,4106	0,0236	4,4319
34,5519	0,0232	4,4673
34,6386	0,0229	4,4673
34,7927	0,0231	4,4319
34,9501	0,0222	4,4319
35,0625	0,0226	4,4319
35,1492	0,0228	4,4319
35,2969	0,0221	4,3964
35,4350	0,0220	4,4319
35,5763	0,0218	4,3964
35,6501	0,0217	4,4673
35,8043	0,0209	4,3964
35,9199	0,0211	4,4673
36,0194	0,0213	4,3964
36,1061	0,0211	4,4673
36,2956	0,0210	4,3964
36,4112	0,0209	4,4673
36,5171	0,0200	4,3964
36,5781	0,0204	4,4319
36,7451	0,0199	4,3964
36,8511	0,0199	4,5028
36,9667	0,0194	4,4319
37,0438	0,0197	4,3964
37,1883	0,0190	4,3610
37,2942	0,0191	4,4673
37,3906	0,0185	4,4673
37,4355	0,0185	4,3964
37,5993	0,0179	4,4319
37,6988	0,0182	4,4673
37,8016	0,0173	4,4319
37,8787	0,0177	4,4319
38,0007	0,0172	4,3964
38,1099	0,0169	4,4673
38,1933	0,0167	4,4319
38,2447	0,0172	4,4673
38,3989	0,0161	4,4319
38,4823	0,0157	4,4319
38,5723	0,0156	4,3964
38,6204	0,0158	4,4319
38,7392	0,0151	4,4319
38,8420	0,0147	4,4673
38,9255	0,0144	4,4319
38,9704	0,0144	4,4319
39,0925	0,0139	4,3964
39,1695	0,0140	4,4319
39,2273	0,0134	4,4319
39,2883	0,0136	4,4319
39,3879	0,0129	4,4319
39,4714	0,0132	4,4673
39,5549	0,0124	4,4319
39,5902	0,0125	4,5028
39,6897	0,0118	4,3964
39,7572	0,0117	4,4319
39,8150	0,0112	4,4319
39,8471	0,0108	4,5028
39,9627	0,0103	4,3964
40,0173	0,0107	4,4319
40,0815	0,0101	4,3964
40,1136	0,0101	4,4319
40,1875	0,0096	4,4673
40,2388	0,0093	4,4319
40,3063	0,0090	4,3610
40,3416	0,0090	4,4319
40,4058	0,0083	4,4319

14.12.2015	16:00:30
V	I	G
[V]	[A]	[W/m²]
0,1509	0,0231	3,4037
0,2954	0,0229	3,4037
0,4239	0,0231	3,4037
0,5876	0,0226	3,3328
0,7321	0,0229	3,4037
0,8638	0,0229	3,4037
0,9890	0,0229	3,4391
1,1464	0,0228	3,4391
1,2780	0,0229	3,4037
1,4225	0,0231	3,4037
1,5381	0,0234	3,4037
1,7115	0,0228	3,5100
1,8464	0,0229	3,5100
1,9845	0,0231	3,4391
2,1354	0,0227	3,4037
2,2350	0,0228	3,3682
2,3923	0,0226	3,4037
2,5015	0,0229	3,5100
2,6813	0,0228	3,4391
2,7744	0,0229	3,3682
2,9575	0,0228	3,3682
3,0923	0,0227	3,4037
3,2208	0,0231	3,4391
3,3589	0,0234	3,4037
3,4809	0,0229	3,4037
3,6350	0,0231	3,3682
3,7827	0,0229	3,4391
3,9208	0,0227	3,5100
4,0268	0,0228	3,4391
4,1584	0,0229	3,4391
4,3254	0,0231	3,4037
4,4571	0,0231	3,4037
4,5695	0,0234	3,4391
4,7300	0,0231	3,4391
4,8745	0,0231	3,5100
4,9933	0,0232	3,4037
5,1410	0,0232	3,4391
5,2631	0,0228	3,4037
5,4108	0,0229	3,4391
5,5521	0,0228	3,4391
5,6773	0,0226	3,4037
5,7768	0,0228	3,4037
5,9438	0,0231	3,4037
6,0915	0,0228	3,3682
6,2328	0,0222	3,5100
6,3452	0,0232	3,4391
6,4929	0,0226	3,4037
6,6085	0,0232	3,4391
6,7562	0,0228	3,4391
6,9007	0,0228	3,4391
7,0131	0,0231	3,5100
7,1737	0,0227	3,4391
7,3021	0,0228	3,4037
7,4402	0,0228	3,3682
7,5366	0,0229	3,4037
7,7132	0,0222	3,4037
7,8416	0,0228	3,3682
7,9829	0,0226	3,4037
8,1017	0,0229	3,4037
8,2141	0,0231	3,4037
8,3715	0,0229	3,4391
8,4871	0,0226	3,4037
8,6380	0,0229	3,4391
8,7407	0,0234	3,4391
8,9173	0,0227	3,4037
9,0458	0,0232	3,4037
9,1774	0,0234	3,3682
9,2995	0,0226	3,3682
9,4376	0,0228	3,4037
9,5756	0,0226	3,4391
9,7137	0,0231	3,4391
9,8454	0,0227	3,3682
9,9449	0,0231	3,4037
10,1087	0,0228	3,4037
10,2532	0,0229	3,4037
10,3688	0,0224	3,4037
10,4491	0,0229	3,5100
10,6482	0,0224	3,4037
10,7766	0,0231	3,3682
10,9050	0,0226	3,4037
11,0431	0,0231	3,4391
11,1684	0,0228	3,4037
11,3064	0,0227	3,4391
11,4509	0,0227	3,4391
11,5826	0,0228	3,5100
11,6757	0,0229	3,4391
11,8266	0,0229	3,4037
11,9647	0,0226	3,4037
12,1028	0,0226	3,4037
12,2280	0,0228	3,4391
12,3693	0,0231	3,4391
12,5138	0,0221	3,4037
12,6359	0,0231	3,4037
12,7707	0,0226	3,4037
12,8895	0,0232	3,4391
13,0372	0,0231	3,4037
13,1785	0,0227	3,4037
13,3006	0,0224	3,4037
13,4129	0,0229	3,4037
13,5671	0,0226	3,4037
13,6891	0,0224	3,4391
13,8176	0,0228	3,4391
13,9588	0,0226	3,4037
14,0809	0,0229	3,4037
14,2222	0,0229	3,4391
14,3634	0,0228	3,4037
14,4887	0,0229	3,4391
14,5850	0,0228	3,5100
14,7488	0,0227	3,4037
14,8804	0,0229	3,4391
15,0185	0,0224	3,4037
15,1438	0,0228	3,4391
15,2786	0,0227	3,4391
15,4167	0,0227	3,4037
15,5612	0,0224	3,4037
15,6768	0,0229	3,4391
15,7764	0,0228	3,4391
15,9273	0,0232	3,4391
16,0686	0,0222	3,4037
16,2002	0,0227	3,4037
16,2998	0,0228	3,4037
16,4635	0,0226	3,4391
16,5984	0,0226	3,4037
16,7268	0,0228	3,4037
16,8521	0,0234	3,4037
16,9805	0,0234	3,4391
17,1186	0,0227	3,4037
17,2406	0,0227	3,4037
17,3819	0,0226	3,4391
17,4879	0,0226	3,4037
17,6549	0,0222	3,4391
17,7801	0,0227	3,4391
17,9021	0,0224	3,4391
18,0145	0,0228	3,4037
18,1590	0,0228	3,4037
18,3067	0,0232	3,4391
18,4127	0,0232	3,5100
18,5668	0,0229	3,5100
18,6985	0,0228	3,4391
18,8430	0,0226	3,4037
18,9650	0,0226	3,4037
19,0935	0,0227	3,4037
19,1994	0,0228	3,5100
19,3343	0,0222	3,4037
19,4756	0,0232	3,4391
19,5944	0,0224	3,3682
19,7325	0,0231	3,5100
19,8770	0,0228	3,5100
20,0118	0,0228	3,4037
20,1403	0,0231	3,4037
20,2752	0,0224	3,4037
20,3908	0,0228	3,5100
20,5192	0,0224	3,4391
20,6444	0,0226	3,4037
20,7665	0,0227	3,4037
20,9110	0,0231	3,3682
21,0458	0,0227	3,4391
21,1775	0,0227	3,5100
21,3124	0,0232	3,5100
21,4504	0,0226	3,4037
21,5596	0,0229	3,4037
21,6849	0,0229	3,5100
21,8358	0,0227	3,4391
21,9546	0,0227	3,4037
22,0702	0,0231	3,3682
22,2275	0,0227	3,3682
22,3560	0,0227	3,4037
22,4780	0,0224	3,4391
22,6032	0,0226	3,5100
22,7381	0,0224	3,4037
22,8601	0,0228	3,4037
22,9950	0,0227	3,4391
23,1267	0,0226	3,5100
23,2615	0,0228	3,4391
23,4028	0,0228	3,4037
23,5152	0,0227	3,4037
23,6469	0,0221	3,4037
23,7560	0,0228	3,4037
23,9005	0,0226	3,4391
24,0226	0,0228	3,4037
24,1574	0,0227	3,4037
24,2891	0,0228	3,4037
24,4143	0,0227	3,4391
24,5620	0,0222	3,4037
24,6744	0,0227	3,5100
24,8029	0,0226	3,4391
24,9185	0,0229	3,4391
25,0694	0,0222	3,4037
25,1850	0,0228	3,4037
25,3167	0,0226	3,5100
25,4194	0,0221	3,5100
25,5703	0,0222	3,4391
25,7020	0,0218	3,4391
25,8337	0,0221	3,4391
25,9653	0,0220	3,4391
26,0873	0,0221	3,4037
26,2158	0,0226	3,4037
26,3314	0,0222	3,4391
26,4695	0,0221	3,4391
26,5851	0,0221	3,4391
26,7167	0,0220	3,4391
26,8420	0,0222	3,4391
26,9768	0,0221	3,4391
27,0860	0,0222	3,4037
27,2112	0,0222	3,4391
27,3461	0,0216	3,4037
27,4713	0,0218	3,4037
27,5869	0,0217	3,4391
27,7090	0,0220	3,4391
27,8374	0,0218	3,4037
27,9659	0,0216	3,4037
28,0943	0,0210	3,4037
28,1971	0,0213	3,4391
28,3255	0,0218	3,5100
28,4475	0,0212	3,4037
28,5728	0,0218	3,4391
28,6948	0,0217	3,5100
28,8072	0,0213	3,4391
28,9356	0,0211	3,4037
29,0673	0,0213	3,4037
29,1797	0,0212	3,4037
29,2921	0,0213	3,4391
29,4301	0,0213	3,4037
29,5457	0,0209	3,4391
29,6742	0,0209	3,4037
29,7737	0,0211	3,4391
29,9086	0,0209	3,4391
30,0114	0,0211	3,4391
30,1462	0,0209	3,4037
30,2618	0,0207	3,4037
30,3646	0,0206	3,4391
30,4930	0,0200	3,5100
30,6150	0,0204	3,4391
30,7435	0,0207	3,4391
30,8141	0,0207	3,4391
30,9715	0,0206	3,3682
31,0871	0,0202	3,4037
31,1866	0,0200	3,5100
31,3022	0,0200	3,3682
31,4114	0,0202	3,4037
31,5431	0,0197	3,4037
31,6522	0,0201	3,4391
31,7711	0,0195	3,4391
31,8738	0,0199	3,4037
31,9926	0,0195	3,4037
32,1050	0,0201	3,4391
32,2303	0,0193	3,4391
32,3202	0,0194	3,4037
32,4486	0,0194	3,4037
32,5642	0,0190	3,4037
32,6670	0,0189	3,4037
32,7826	0,0191	3,4391
32,8725	0,0190	3,4391
33,0009	0,0188	3,4037
33,0908	0,0190	3,4037
33,2097	0,0184	3,4037
33,2964	0,0189	3,4391
33,4087	0,0185	3,4391
33,5179	0,0182	3,4037
33,6239	0,0180	3,4391
33,7138	0,0189	3,4391
33,8326	0,0177	3,4391
33,9514	0,0177	3,4391
34,0510	0,0175	3,4391
34,1377	0,0182	3,4391
34,2404	0,0172	3,4037
34,3464	0,0173	3,4391
34,4395	0,0175	3,5100
34,5423	0,0173	3,4391
34,6290	0,0171	3,4391
34,7414	0,0173	3,4391
34,8505	0,0167	3,5100
34,9405	0,0166	3,5100
35,0368	0,0164	3,4037
35,1267	0,0169	3,4037
35,2198	0,0164	3,4037
35,3226	0,0163	3,4037
35,4189	0,0162	3,5100
35,4960	0,0162	3,5100
35,6052	0,0164	3,5100
35,7111	0,0156	3,4037
35,7850	0,0158	3,4037
35,8556	0,0158	3,4037
35,9584	0,0151	3,4391
36,0515	0,0147	3,4037
36,1511	0,0152	3,4037
36,2249	0,0153	3,4037
36,3148	0,0148	3,4391
36,3919	0,0145	3,3682
36,4914	0,0147	3,4391
36,5814	0,0145	3,4391
36,6520	0,0142	3,4391
36,7451	0,0145	3,4391
36,8286	0,0136	3,4037
36,9185	0,0137	3,4037
36,9795	0,0142	3,5100
37,0598	0,0135	3,4391
37,1369	0,0134	3,4391
37,2172	0,0135	3,3682
37,2878	0,0130	3,4037
37,3424	0,0136	3,4391
37,4484	0,0124	3,5100
37,5222	0,0125	3,5100
37,6025	0,0125	3,4037
37,6507	0,0125	3,4037
37,7342	0,0119	3,4037
37,7952	0,0119	3,4391
37,8883	0,0118	3,5100
37,9493	0,0109	3,4037
38,0167	0,0112	3,4391
38,0842	0,0114	3,4037
38,1484	0,0109	3,4391
38,2126	0,0107	3,4391
38,2511	0,0112	3,4391
38,3507	0,0103	3,4037
38,4053	0,0101	3,4391
38,4695	0,0099	3,4391
38,5177	0,0105	3,4391
38,5787	0,0098	3,3682
38,6397	0,0098	3,4391
38,6975	0,0092	3,4037
38,7681	0,0099	3,5100

14.12.2015	16:05:30
V	I	G
[V]	[A]	[W/m²]
0,1317	0,0201	3,0137
0,2697	0,0204	3,0137
0,3564	0,0207	3,0137
0,5234	0,0207	3,0491
0,6551	0,0204	3,0491
0,7867	0,0202	3,0137
0,9055	0,0204	3,0137
1,0179	0,0210	3,0137
1,1560	0,0206	3,0137
1,2877	0,0204	3,0491
1,4225	0,0204	3,0137
1,5446	0,0207	3,0137
1,6570	0,0206	3,0137
1,7790	0,0200	3,0137
1,9171	0,0209	3,0491
2,0327	0,0204	3,0137
2,1643	0,0204	2,9782
2,2928	0,0204	2,9782
2,4084	0,0207	3,0137
2,5496	0,0202	3,0137
2,6524	0,0204	3,0491
2,7809	0,0206	3,0137
2,9157	0,0206	3,0491
3,0056	0,0207	3,0137
3,1598	0,0202	3,0137
3,2818	0,0201	3,0137
3,4134	0,0207	3,0491
3,5323	0,0201	3,0137
3,6318	0,0202	3,0137
3,7763	0,0204	3,0137
3,8887	0,0200	3,0491
4,0171	0,0200	3,0137
4,1488	0,0202	3,0137
4,2259	0,0207	3,0137
4,3896	0,0201	3,0137
4,5181	0,0201	3,0137
4,6497	0,0201	3,0137
4,7493	0,0207	3,0491
4,8488	0,0204	3,0137
4,9901	0,0206	3,0137
5,1121	0,0207	3,0491
5,2406	0,0210	3,0137
5,3755	0,0209	3,0137
5,4429	0,0206	2,9782
5,6034	0,0201	3,0137
5,7351	0,0200	3,0137
5,8539	0,0204	3,0137
5,9695	0,0202	2,9782
6,0787	0,0210	3,0491
6,2071	0,0202	3,0137
6,3484	0,0206	3,0137
6,4705	0,0202	3,0137
6,5957	0,0206	2,9782
6,6695	0,0206	2,9782
6,8173	0,0202	3,0491
6,9361	0,0204	3,0491
7,0485	0,0211	3,0491
7,1865	0,0197	3,0137
7,3021	0,0200	3,0137
7,4113	0,0204	3,0137
7,5590	0,0207	3,0137
7,6778	0,0201	3,0491
7,7902	0,0202	3,0137
7,8866	0,0199	3,0491
8,0086	0,0207	3,0137
8,1435	0,0206	3,0137
8,2687	0,0209	3,0491
8,3907	0,0206	3,0137
8,5063	0,0202	2,9782
8,5898	0,0206	3,0137
8,7375	0,0200	3,0491
8,8563	0,0200	3,0137
8,9784	0,0204	3,0137
9,0875	0,0207	3,0137
9,2031	0,0206	3,0137
9,3444	0,0202	3,0137
9,4665	0,0200	3,0491
9,5917	0,0207	3,0137
9,7105	0,0206	3,0491
9,7779	0,0206	2,9782
9,9289	0,0206	3,0137
10,0541	0,0204	3,0491
10,1890	0,0202	3,0491
10,3046	0,0204	3,0491
10,3752	0,0211	2,9782
10,5293	0,0201	3,0137
10,6546	0,0204	3,0137
10,7798	0,0201	3,0491
10,8986	0,0204	3,0491
11,0078	0,0204	3,0491
11,1427	0,0200	3,0137
11,2743	0,0200	3,0137
11,3707	0,0206	3,0137
11,4863	0,0204	3,0137
11,6179	0,0200	3,0137
11,7303	0,0209	3,0491
11,8491	0,0206	3,0491
11,9904	0,0207	3,0137
12,1092	0,0204	3,0491
12,2152	0,0201	3,0137
12,2955	0,0207	3,0491
12,4528	0,0201	3,0137
12,5652	0,0202	3,0491
12,6872	0,0197	3,0137
12,8125	0,0206	3,0491
12,8960	0,0207	3,0137
13,0501	0,0207	3,0137
13,1721	0,0200	3,0137
13,2813	0,0206	3,0137
13,3969	0,0200	3,0491
13,4932	0,0202	3,0846
13,6249	0,0204	2,9782
13,7565	0,0202	3,0137
13,8882	0,0202	3,0491
13,9910	0,0200	3,0491
14,0809	0,0206	3,0491
14,2222	0,0200	3,0137
14,3378	0,0202	2,9782
14,4662	0,0201	3,0491
14,5818	0,0202	3,0491
14,6685	0,0210	3,0137
14,8291	0,0207	3,0491
14,9511	0,0204	3,0137
15,0571	0,0201	3,0491
15,1951	0,0202	3,0137
15,2786	0,0204	3,0491
15,4071	0,0201	3,0137
15,5355	0,0197	3,0491
15,6383	0,0200	3,0491
15,7699	0,0207	3,0137
15,8502	0,0206	3,0137
15,9979	0,0206	3,0137
16,1296	0,0204	3,0491
16,2484	0,0197	3,0491
16,3576	0,0202	3,0491
16,4764	0,0206	3,0491
16,5823	0,0202	2,9782
16,6947	0,0201	2,9782
16,8457	0,0204	3,0137
16,9292	0,0204	3,0491
17,0737	0,0209	3,0491
17,1668	0,0204	3,0137
17,3081	0,0202	3,0137
17,4044	0,0200	3,0137
17,5296	0,0207	3,0491
17,6484	0,0201	3,0491
17,7448	0,0206	3,0491
17,8925	0,0202	3,0137
18,0209	0,0201	2,9782
18,1398	0,0207	3,0137
18,2425	0,0200	3,0137
18,3228	0,0206	3,0491
18,4673	0,0202	3,0491
18,5733	0,0204	3,0137
18,7113	0,0204	3,0846
18,8269	0,0204	3,0491
18,9201	0,0207	3,0491
19,0325	0,0200	3,0137
19,1962	0,0204	3,0491
19,3086	0,0204	3,0137
19,4242	0,0201	3,0137
19,4916	0,0202	3,0491
19,6137	0,0200	3,0137
19,7582	0,0206	3,0491
19,8706	0,0206	3,0491
19,9990	0,0204	3,0137
20,1339	0,0201	3,0491
20,2109	0,0207	3,0491
20,3554	0,0199	3,0491
20,4807	0,0202	3,0491
20,5834	0,0202	3,0846
20,6926	0,0207	3,0137
20,8050	0,0209	3,0137
20,9463	0,0197	2,9782
21,0490	0,0201	2,9782
21,1711	0,0200	2,9782
21,2963	0,0202	3,0846
21,3766	0,0202	3,0491
21,5243	0,0201	3,0491
21,6463	0,0200	3,0137
21,7651	0,0204	2,9782
21,8839	0,0202	3,0137
21,9578	0,0204	3,0491
22,1151	0,0200	3,0491
22,2179	0,0202	3,0491
22,3431	0,0202	2,9782
22,4587	0,0202	3,0137
22,5647	0,0206	3,0137
22,6899	0,0200	3,0491
22,8120	0,0201	3,0137
22,9276	0,0201	3,0137
23,0207	0,0202	3,0137
23,1331	0,0204	3,0491
23,2615	0,0202	3,0491
23,3868	0,0201	3,0137
23,5024	0,0199	3,0491
23,6115	0,0204	3,0491
23,7207	0,0201	3,0491
23,8235	0,0207	3,0491
23,9648	0,0200	3,0137
24,0868	0,0199	3,0137
24,1928	0,0199	3,0846
24,3148	0,0202	3,0491
24,4047	0,0201	3,0491
24,5460	0,0199	3,0137
24,6520	0,0197	3,0491
24,7579	0,0197	3,0491
24,8864	0,0195	3,0137
24,9891	0,0204	3,0491
25,1079	0,0197	3,0137
25,2267	0,0199	3,0491
25,3456	0,0199	3,0491
25,4547	0,0194	3,0137
25,5511	0,0200	3,0137
25,6892	0,0195	3,0137
25,7919	0,0194	3,0137
25,9043	0,0194	3,0137
26,0263	0,0199	3,0137
26,1130	0,0199	3,0491
26,2447	0,0199	3,0137
26,3571	0,0197	3,0137
26,4759	0,0195	3,0491
26,5947	0,0195	3,0137
26,6750	0,0199	2,9782
26,8066	0,0193	3,0137
26,9190	0,0197	3,0846
27,0410	0,0195	3,0491
27,1566	0,0194	3,0491
27,2530	0,0193	3,0137
27,3686	0,0195	3,0491
27,4778	0,0191	3,0491
27,6094	0,0194	3,0491
27,6961	0,0197	3,0137
27,8117	0,0190	3,0137
27,9209	0,0193	3,0137
28,0365	0,0191	3,0491
28,1360	0,0191	3,0491
28,2452	0,0191	3,0491
28,3705	0,0194	3,0137
28,4572	0,0185	3,0137
28,5792	0,0189	3,0491
28,6948	0,0189	3,0491
28,8104	0,0185	3,0846
28,9035	0,0189	3,0846
28,9902	0,0191	3,0491
29,1283	0,0185	2,9782
29,2246	0,0189	3,0137
29,3402	0,0188	3,0846
29,4558	0,0185	3,0846
29,5297	0,0191	3,0491
29,6517	0,0183	3,0491
29,7609	0,0180	2,9073
29,8733	0,0184	3,0137
29,9696	0,0182	3,0491
30,0659	0,0190	3,0846
30,1848	0,0180	3,0137
30,3036	0,0184	3,0137
30,3935	0,0180	3,0491
30,4930	0,0184	3,0491
30,5894	0,0183	3,0137
30,6857	0,0180	3,0491
30,8045	0,0179	3,0137
30,9201	0,0180	3,0491
31,0197	0,0174	3,0846
31,1160	0,0179	3,0491
31,2091	0,0177	3,0137
31,3343	0,0177	3,0137
31,4114	0,0172	3,0846
31,5206	0,0174	3,0491
31,6233	0,0175	3,0491
31,7133	0,0177	3,0137
31,8160	0,0175	3,0491
31,9188	0,0173	2,9782
32,0312	0,0173	3,0491
32,1082	0,0171	3,0846
32,2078	0,0169	3,0137
32,3202	0,0171	3,0491
32,4133	0,0167	3,0137
32,5032	0,0166	3,0137
32,6060	0,0164	3,0137
32,6894	0,0169	3,0846
32,7858	0,0169	3,0491
32,8885	0,0166	2,9782
33,0073	0,0161	3,0137
33,0876	0,0164	3,0491
33,1615	0,0158	3,0846
33,2707	0,0166	3,0846
33,3702	0,0158	3,0846
33,4409	0,0161	2,9782
33,5436	0,0161	3,0491
33,6143	0,0158	3,0137
33,7234	0,0157	3,0491
33,8166	0,0156	3,0846
33,9193	0,0157	3,0137
34,0156	0,0152	2,9782
34,0638	0,0148	2,9782
34,1762	0,0148	3,0137
34,2822	0,0146	3,0491
34,3560	0,0153	3,0491
34,4459	0,0148	3,0491
34,5230	0,0151	3,0137
34,6129	0,0146	3,0137
34,6900	0,0146	3,0491
34,7799	0,0146	3,0491
34,8730	0,0142	2,9782
34,9501	0,0140	3,0137
35,0207	0,0146	3,0137
35,1171	0,0137	3,0491
35,2006	0,0139	3,0846
35,2680	0,0144	3,0137
35,3675	0,0135	3,0491
35,4350	0,0135	3,0491
35,5281	0,0137	3,0137
35,6020	0,0130	3,0491
35,6854	0,0129	3,0491
35,7657	0,0132	3,0137
35,8203	0,0135	3,0491
35,9199	0,0132	3,0137
35,9937	0,0128	3,0137
36,0676	0,0126	3,0137
36,1414	0,0132	3,0137
36,2121	0,0124	3,0137
36,2891	0,0126	3,0491
36,3630	0,0125	3,0491
36,4369	0,0117	3,0491
36,5075	0,0119	3,0491
36,5589	0,0121	3,0137
36,6424	0,0119	3,0137
36,7130	0,0115	3,0491
36,7869	0,0117	3,0846
36,8511	0,0114	3,0491
36,9153	0,0110	2,9782
36,9795	0,0115	3,0137
37,0534	0,0112	3,0137
37,1208	0,0107	3,0491
37,1915	0,0107	3,0491
37,2236	0,0105	3,0491
37,3039	0,0105	3,0137
37,3681	0,0102	3,0137
37,4259	0,0099	3,0137
37,4869	0,0102	3,0846
37,5415	0,0101	3,0491
37,6025	0,0101	3,0137
37,6603	0,0093	3,0491
37,7245	0,0099	3,0137
37,7887	0,0090	3,0491
37,8433	0,0090	3,0491

14.12.2015	16:10:30
V	I	G
[V]	[A]	[W/m²]
0,1445	0,0201	2,9073
0,2697	0,0199	2,9782
0,3757	0,0200	2,9073
0,5009	0,0202	2,9073
0,6422	0,0200	2,9073
0,7675	0,0204	2,9782
0,9120	0,0200	2,9073
1,0115	0,0204	3,0137
1,1303	0,0200	2,8719
1,2716	0,0200	2,9073
1,3840	0,0197	2,9073
1,5124	0,0197	2,9782
1,6248	0,0200	2,9782
1,7019	0,0202	2,9782
1,8849	0,0195	2,8719
2,0102	0,0201	3,0137
2,1226	0,0202	2,9073
2,2574	0,0201	2,9782
2,2992	0,0204	2,9073
2,5015	0,0204	2,9782
2,6042	0,0199	2,8719
2,6941	0,0206	2,8719
2,8643	0,0199	2,9073
2,9446	0,0201	2,9073
3,0923	0,0201	2,8719
3,2368	0,0199	2,9782
3,3524	0,0200	2,9073
3,4648	0,0206	2,9073
3,5868	0,0201	2,8719
3,6864	0,0206	2,9782
3,7988	0,0204	2,9782
3,9626	0,0204	2,9073
4,0749	0,0202	2,9073
4,1938	0,0206	2,9782
4,2869	0,0200	2,8719
4,4282	0,0200	3,0137
4,5470	0,0200	2,9073
4,6883	0,0195	2,9073
4,7910	0,0206	2,9782
4,8681	0,0206	2,9073
5,0351	0,0200	2,9073
5,1507	0,0204	2,9782
5,2727	0,0200	2,9073
5,3979	0,0200	2,9782
5,4557	0,0201	2,8719
5,6195	0,0202	2,9782
5,7608	0,0204	2,9782
5,8539	0,0202	2,9782
5,9663	0,0201	2,9073
6,0819	0,0202	2,9073
6,1815	0,0201	2,9073
6,3516	0,0200	3,0137
6,4705	0,0195	2,9073
6,5893	0,0199	2,9073
6,7049	0,0202	2,9073
6,8108	0,0201	2,9073
6,9521	0,0201	2,9782
7,0645	0,0201	2,9782
7,1833	0,0204	2,9782
7,3182	0,0197	2,9782
7,3888	0,0202	2,9073
7,5494	0,0202	2,9073
7,6329	0,0200	2,9073
7,7870	0,0199	3,0137
7,8416	0,0209	2,9782
7,9219	0,0204	2,9782
8,1274	0,0201	2,9073
8,2398	0,0201	2,9782
8,3843	0,0201	2,8719
8,4903	0,0199	2,9073
8,5513	0,0197	2,9073
8,7118	0,0204	3,0137
8,8435	0,0197	2,9073
8,9527	0,0199	2,9073
9,0779	0,0195	2,8719
9,1389	0,0197	2,9782
9,2834	0,0202	2,9782
9,4087	0,0204	2,9073
9,5564	0,0201	2,9073
9,6752	0,0199	2,9073
9,7972	0,0201	2,8719
9,8967	0,0202	2,9782
10,0348	0,0200	2,9073
10,1440	0,0197	2,9782
10,2596	0,0204	2,9073
10,3656	0,0199	2,9073
10,4362	0,0200	2,9073
10,5647	0,0202	2,9782
10,7220	0,0193	2,8719
10,8440	0,0202	2,9782
10,9596	0,0199	2,9073
11,0142	0,0202	3,0137
11,1876	0,0199	2,9073
11,3032	0,0200	2,9073
11,4285	0,0202	2,8719
11,5344	0,0204	2,9782
11,6019	0,0199	2,9782
11,7785	0,0201	2,9782
11,9069	0,0201	2,9782
12,0193	0,0200	2,9782
12,1317	0,0200	2,9073
12,2473	0,0197	2,9782
12,3629	0,0200	2,9073
12,4946	0,0201	2,9782
12,6166	0,0200	2,8719
12,7161	0,0200	2,9073
12,8478	0,0194	2,9073
12,9505	0,0201	2,9782
13,0533	0,0201	2,9073
13,1689	0,0204	3,0137
13,3006	0,0201	2,9782
13,4162	0,0202	2,9073
13,5093	0,0200	2,9782
13,6506	0,0202	2,9782
13,7598	0,0197	2,9782
13,8882	0,0200	3,0137
14,0006	0,0201	2,8719
14,0937	0,0201	2,9782
14,2478	0,0200	2,9073
14,3378	0,0200	2,9782
14,4887	0,0204	2,9782
14,5818	0,0197	2,9782
14,6814	0,0204	2,9073
14,8034	0,0197	3,0137
14,9350	0,0200	2,9073
15,0506	0,0197	2,9782
15,1694	0,0197	2,8719
15,2497	0,0201	2,9782
15,3846	0,0195	2,9073
15,5130	0,0200	3,0137
15,6094	0,0199	2,9782
15,7378	0,0200	2,9073
15,8598	0,0199	2,8719
15,9658	0,0201	2,9782
16,1007	0,0199	3,0137
16,2066	0,0201	2,9782
16,3351	0,0201	2,8719
16,4507	0,0199	2,9073
16,5374	0,0199	2,8719
16,6755	0,0200	2,9073
16,7750	0,0201	2,9073
16,8970	0,0200	2,9782
17,0191	0,0200	2,8719
17,1090	0,0200	2,9782
17,2599	0,0200	2,8719
17,3787	0,0197	2,9782
17,5039	0,0197	3,0137
17,5971	0,0202	2,9782
17,6838	0,0202	2,9073
17,8218	0,0197	2,9073
17,9375	0,0201	2,9073
18,0563	0,0197	2,9782
18,1719	0,0197	2,9782
18,2650	0,0202	2,9073
18,3966	0,0200	2,8719
18,5251	0,0194	2,9073
18,6535	0,0199	2,9073
18,7659	0,0199	2,9782
18,8687	0,0197	2,9073
18,9875	0,0200	2,9782
19,0935	0,0195	2,9073
19,2059	0,0197	2,9073
19,3279	0,0201	2,8719
19,4403	0,0201	3,0137
19,5430	0,0200	2,9782
19,6843	0,0197	2,9073
19,7935	0,0207	2,8719
19,9123	0,0199	2,9073
20,0247	0,0200	2,9073
20,1307	0,0195	3,0137
20,2559	0,0197	2,9073
20,3587	0,0199	2,9073
20,4807	0,0200	2,9073
20,5866	0,0199	2,9782
20,6862	0,0206	2,9782
20,8243	0,0195	2,9782
20,9399	0,0199	2,9782
21,0587	0,0201	2,9073
21,1743	0,0202	2,9073
21,2931	0,0200	2,9782
21,3959	0,0197	2,8719
21,5243	0,0202	2,9782
21,6399	0,0197	2,9782
21,7555	0,0200	2,9782
21,8550	0,0199	2,9073
21,9610	0,0199	2,9073
22,0798	0,0201	2,9073
22,1954	0,0200	2,9782
22,3207	0,0201	2,9073
22,4363	0,0195	2,9782
22,5422	0,0199	2,9073
22,6675	0,0202	2,9782
22,7863	0,0197	2,9782
22,8955	0,0197	2,9782
22,9982	0,0197	2,8719
23,0978	0,0197	2,8719
23,2198	0,0199	2,9073
23,3386	0,0197	2,9782
23,4606	0,0197	2,9782
23,5634	0,0199	3,0137
23,6790	0,0200	2,9073
23,8010	0,0195	2,8719
23,9230	0,0197	2,9073
24,0418	0,0195	3,0137
24,1542	0,0197	2,9782
24,2538	0,0201	2,9782
24,3437	0,0200	2,9073
24,4753	0,0199	2,9782
24,6006	0,0197	2,9782
24,6969	0,0199	3,0137
24,8254	0,0193	2,9073
24,9249	0,0195	2,8719
25,0533	0,0195	2,8719
25,1529	0,0194	2,9073
25,2845	0,0194	2,9073
25,3969	0,0197	2,9782
25,4772	0,0199	2,9782
25,6025	0,0194	2,9782
25,7181	0,0191	2,8719
25,8208	0,0190	2,9782
25,9332	0,0194	2,9073
26,0263	0,0191	2,9782
26,1580	0,0193	2,9073
26,2704	0,0189	3,0137
26,3795	0,0191	2,9073
26,4984	0,0193	2,9782
26,5979	0,0195	2,9073
26,7071	0,0191	2,9782
26,8291	0,0191	2,9073
26,9415	0,0193	2,9782
27,0475	0,0190	2,8719
27,1599	0,0188	2,9073
27,2466	0,0190	2,9782
27,3750	0,0185	3,0137
27,4970	0,0184	3,0137
27,5998	0,0188	2,9073
27,7090	0,0194	2,9073
27,8117	0,0189	2,9073
27,9241	0,0189	2,9782
28,0333	0,0184	2,9782
28,1457	0,0189	2,9782
28,2484	0,0185	2,9782
28,3351	0,0189	2,8719
28,4475	0,0185	2,9073
28,5631	0,0189	2,9073
28,6627	0,0183	3,0491
28,7718	0,0184	2,9782
28,8714	0,0183	2,9073
28,9838	0,0184	2,9782
29,0962	0,0179	2,9782
29,2118	0,0183	2,9073
29,3017	0,0183	3,0137
29,3916	0,0183	2,9782
29,5136	0,0180	2,9782
29,6228	0,0184	2,8719
29,7223	0,0180	3,0137
29,8123	0,0180	2,9782
29,9279	0,0182	3,0137
30,0242	0,0180	2,9782
30,1398	0,0177	2,9073
30,2490	0,0179	2,9073
30,3325	0,0174	2,9782
30,4352	0,0183	2,9073
30,5348	0,0180	3,0137
30,6504	0,0174	2,8719
30,7563	0,0172	2,9782
30,8430	0,0172	2,9782
30,9522	0,0175	2,9782
31,0357	0,0174	2,9073
31,1577	0,0173	2,9782
31,2573	0,0173	2,9782
31,3536	0,0172	2,8719
31,4596	0,0172	2,8719
31,5238	0,0171	2,9073
31,6522	0,0175	2,9073
31,7422	0,0164	3,0137
31,8353	0,0164	2,9073
31,9380	0,0169	2,9073
32,0055	0,0172	2,9073
32,1307	0,0167	2,9782
32,2270	0,0166	2,9073
32,3137	0,0166	2,9073
32,4197	0,0167	2,9782
32,5064	0,0163	2,9073
32,6060	0,0163	2,9073
32,6991	0,0161	2,9073
32,7986	0,0161	2,9073
32,8885	0,0162	2,9782
32,9720	0,0164	2,8719
33,0427	0,0157	2,8719
33,1615	0,0161	2,9073
33,2482	0,0158	2,9073
33,3445	0,0155	2,9073
33,4376	0,0155	2,9782
33,5147	0,0157	2,9782
33,6175	0,0156	3,0137
33,7010	0,0151	2,9073
33,8069	0,0148	2,9073
33,8840	0,0153	2,9782
33,9611	0,0148	2,9782
34,0606	0,0151	2,9073
34,1345	0,0148	2,9782
34,2308	0,0147	2,9073
34,3079	0,0145	2,9073
34,3721	0,0151	2,8719
34,4748	0,0146	2,9073
34,5648	0,0145	2,9782
34,6482	0,0135	2,9782
34,7285	0,0142	2,9073
34,8184	0,0136	2,9782
34,9051	0,0144	2,9073
34,9854	0,0139	2,9782
35,0689	0,0137	2,9782
35,1460	0,0137	3,0137
35,2166	0,0139	2,9073
35,2905	0,0135	2,9073
35,3740	0,0136	2,9073
35,4478	0,0132	2,9782
35,5345	0,0135	2,8719
35,6148	0,0128	2,9782
35,6822	0,0130	2,9073
35,7657	0,0128	2,9073
35,8460	0,0128	2,9782
35,9263	0,0126	2,9782
35,9841	0,0126	2,9782
36,0483	0,0126	2,9073
36,1414	0,0128	2,9073
36,2121	0,0121	2,9073
36,2827	0,0119	2,9073
36,3501	0,0119	2,9782
36,4047	0,0118	2,9782
36,4850	0,0119	3,0137
36,5621	0,0115	2,9073
36,6295	0,0110	2,9782
36,7034	0,0109	2,9073
36,7483	0,0115	2,9782
36,8222	0,0114	2,9073
36,8896	0,0105	2,9782
36,9506	0,0108	2,9073
37,0181	0,0105	3,0137
37,0759	0,0109	2,9782
37,1337	0,0105	2,9073
37,2075	0,0102	2,8719
37,2685	0,0101	2,9782
37,3263	0,0098	2,9782
37,3938	0,0098	3,0137
37,4548	0,0101	2,9782
37,5030	0,0096	2,9782
37,5575	0,0097	2,9073
37,6250	0,0091	2,9782

14.12.2015	16:15:30
V	I	G
[V]	[A]	[W/m²]
0,1830	0,0146	2,0564
0,3018	0,0152	2,0918
0,4014	0,0152	2,0564
0,4913	0,0146	2,0564
0,5684	0,0152	2,0564
0,7032	0,0152	2,0209
0,7899	0,0147	2,0209
0,8895	0,0147	2,0564
0,9505	0,0153	2,0918
1,0693	0,0151	2,0564
1,1689	0,0153	2,0209
1,2780	0,0147	2,0209
1,3294	0,0151	2,0564
1,4546	0,0151	2,0564
1,5574	0,0148	2,0564
1,6441	0,0148	2,0564
1,7148	0,0152	2,0564
1,8271	0,0151	2,0209
1,9010	0,0147	2,0564
2,0166	0,0151	2,0209
2,1001	0,0146	2,0564
2,1964	0,0147	2,0918
2,2895	0,0145	2,0564
2,3730	0,0148	2,0209
2,4597	0,0147	2,0209
2,5593	0,0148	2,0209
2,6620	0,0145	2,0209
2,7391	0,0147	2,0209
2,8483	0,0152	2,0564
2,9414	0,0146	2,0564
3,0442	0,0151	2,0918
3,1084	0,0147	2,0564
3,2336	0,0145	2,0209
3,3171	0,0148	2,0564
3,4070	0,0148	2,0564
3,4680	0,0148	2,0918
3,5965	0,0147	2,0918
3,6607	0,0148	2,0564
3,7827	0,0145	2,0209
3,8502	0,0155	2,0209
3,9626	0,0146	2,0209
4,0236	0,0147	2,0209
4,1424	0,0155	2,0918
4,2291	0,0148	2,0564
4,3286	0,0153	2,0564
4,4025	0,0147	2,0564
4,5084	0,0147	2,0564
4,6016	0,0152	2,0564
4,7011	0,0153	2,0564
4,7718	0,0145	2,0564
4,8745	0,0148	2,0564
4,9580	0,0145	2,0564
5,0608	0,0144	2,0564
5,1378	0,0148	2,0564
5,2342	0,0146	2,0564
5,3209	0,0155	2,0564
5,4204	0,0144	2,0564
5,5167	0,0146	2,0209
5,5970	0,0146	2,0209
5,6966	0,0147	2,0564
5,7929	0,0148	2,0918
5,9021	0,0145	2,0918
5,9406	0,0151	2,0564
6,0530	0,0147	2,0564
6,1654	0,0145	2,0209
6,2425	0,0144	2,0209
6,3067	0,0151	2,0209
6,4319	0,0147	2,0209
6,5154	0,0153	2,0918
6,6150	0,0144	2,0564
6,6760	0,0155	2,0564
6,7851	0,0148	2,0564
6,8815	0,0147	2,0564
6,9618	0,0151	2,0209
7,0131	0,0145	2,0918
7,1352	0,0153	2,0564
7,2347	0,0152	2,0564
7,3214	0,0145	2,0564
7,3953	0,0148	2,0209
7,4980	0,0147	2,0209
7,5911	0,0146	2,0564
7,6811	0,0148	2,0209
7,7549	0,0148	2,0209
7,8769	0,0146	2,0564
7,9508	0,0153	2,0564
8,0439	0,0148	2,0564
8,1017	0,0147	2,0564
8,2237	0,0148	2,0564
8,3265	0,0146	2,0564
8,4068	0,0148	2,0209
8,4903	0,0151	2,0209
8,5962	0,0153	2,0564
8,6861	0,0145	2,0209
8,7472	0,0151	2,0209
8,8531	0,0145	2,0209
8,9591	0,0148	2,0564
9,0297	0,0145	2,0564
9,0940	0,0151	2,0564
9,2224	0,0146	2,0209
9,3059	0,0148	2,0564
9,3926	0,0148	2,0209
9,4665	0,0147	2,0564
9,5660	0,0146	2,0209
9,6623	0,0145	2,0564
9,7555	0,0147	2,0564
9,8165	0,0147	2,0564
9,9417	0,0145	2,0209
10,0156	0,0152	2,0564
10,1151	0,0145	2,0564
10,1890	0,0151	2,0564
10,2917	0,0151	2,0564
10,3881	0,0148	2,0564
10,4748	0,0148	2,0918
10,5550	0,0147	2,0564
10,6546	0,0151	2,0564
10,7284	0,0147	2,0209
10,8216	0,0151	2,0209
10,9147	0,0147	2,0209
11,0014	0,0151	2,0564
11,0977	0,0145	2,0564
11,1651	0,0151	2,0209
11,2615	0,0145	2,0564
11,3707	0,0152	2,0209
11,4542	0,0155	2,0209
11,5087	0,0151	2,0564
11,6276	0,0148	2,0564
11,7239	0,0148	2,0918
11,8042	0,0146	2,0918
11,8652	0,0151	2,0564
11,9872	0,0148	2,0564
12,0643	0,0151	2,0564
12,1510	0,0146	2,0564
12,2312	0,0147	2,0564
12,3340	0,0151	2,0564
12,4303	0,0151	2,0918
12,5010	0,0146	2,0564
12,5909	0,0148	2,0209
12,6904	0,0148	2,0564
12,7804	0,0147	2,0918
12,8735	0,0152	2,0918
12,9441	0,0151	2,0918
13,0533	0,0147	2,0209
13,1464	0,0148	2,0564
13,2331	0,0146	2,0564
13,3262	0,0147	2,0564
13,4162	0,0146	2,0918
13,4932	0,0147	2,0918
13,5639	0,0148	2,0564
13,6666	0,0153	2,0564
13,7598	0,0153	2,0564
13,8368	0,0142	2,0564
13,9075	0,0146	2,0209
14,0199	0,0145	2,0564
14,1001	0,0148	2,0918
14,2061	0,0155	2,0209
14,2478	0,0152	2,0918
14,3538	0,0147	2,0209
14,4694	0,0146	2,0209
14,5561	0,0152	2,0564
14,6300	0,0148	2,0564
14,7263	0,0151	2,0209
14,8323	0,0148	2,0209
14,9126	0,0151	2,0564
14,9800	0,0147	2,0918
15,1052	0,0151	2,0209
15,1791	0,0148	2,0564
15,2690	0,0146	2,0209
15,3428	0,0148	2,0564
15,4424	0,0146	2,0918
15,5195	0,0146	2,0918
15,6351	0,0147	2,0918
15,6993	0,0146	2,0918
15,7956	0,0144	2,0918
15,9016	0,0151	2,0918
15,9530	0,0147	2,0564
16,0493	0,0148	2,0209
16,1521	0,0147	2,0564
16,2323	0,0147	2,0564
16,2677	0,0148	2,0564
16,3961	0,0146	2,0918
16,5085	0,0153	2,0564
16,5984	0,0146	2,0564
16,6562	0,0155	2,0209
16,7750	0,0147	2,0564
16,8489	0,0153	2,0564
16,9548	0,0146	2,0918
16,9966	0,0155	2,0918
17,1186	0,0145	2,0918
17,2117	0,0147	2,0564
17,3049	0,0151	2,0564
17,3627	0,0146	2,0564
17,4590	0,0144	2,0564
17,5585	0,0145	2,0564
17,6324	0,0146	2,0918
17,7095	0,0152	2,0918
17,8186	0,0144	2,0564
17,8443	0,0147	2,0918
17,9920	0,0151	2,0564
18,0723	0,0152	2,0564
18,1654	0,0145	2,0918
18,2682	0,0145	2,0564
18,3356	0,0155	2,0209
18,4320	0,0148	2,0209
18,5283	0,0146	2,0918
18,6182	0,0147	2,0564
18,6856	0,0146	2,0918
18,7980	0,0147	2,0564
18,8751	0,0147	2,0918
18,9586	0,0151	2,0209
19,0292	0,0151	2,0564
19,1481	0,0151	2,0564
19,2315	0,0147	2,0918
19,3118	0,0147	2,0564
19,3825	0,0151	2,0918
19,5013	0,0147	2,0209
19,5751	0,0146	2,0564
19,6618	0,0148	2,0209
19,7421	0,0147	2,0564
19,8288	0,0144	2,0564
19,9284	0,0146	2,0918
20,0118	0,0145	2,0564
20,0761	0,0148	2,0564
20,1853	0,0153	2,0209
20,2816	0,0145	2,0564
20,3554	0,0147	2,0564
20,4357	0,0147	2,0564
20,5449	0,0152	2,0564
20,6252	0,0146	2,0564
20,7087	0,0147	2,0564
20,8114	0,0147	2,0564
20,8981	0,0148	2,0564
20,9559	0,0148	2,0564
21,0458	0,0147	2,0209
21,1582	0,0144	2,0564
21,2257	0,0145	2,0209
21,3124	0,0147	2,0564
21,3766	0,0144	2,0564
21,4665	0,0147	2,0564
21,5853	0,0148	2,0564
21,6816	0,0148	2,0918
21,7394	0,0146	2,0564
21,8518	0,0148	2,0564
21,9450	0,0148	2,0564
22,0092	0,0144	2,0564
22,0991	0,0151	2,0564
22,2115	0,0145	2,0918
22,2950	0,0145	2,0918
22,3753	0,0147	2,1628
22,4587	0,0151	2,0564
22,5454	0,0145	2,0209
22,6065	0,0144	2,0564
22,7124	0,0146	2,0918
22,8055	0,0145	2,0564
22,8922	0,0148	2,0564
22,9693	0,0146	2,0564
23,0464	0,0146	2,1628
23,1331	0,0146	2,0564
23,2358	0,0145	2,0564
23,3290	0,0146	2,0209
23,3643	0,0146	2,0209
23,4863	0,0146	2,0564
23,5666	0,0146	2,0918
23,6533	0,0147	2,0564
23,7271	0,0146	2,0564
23,8235	0,0146	2,0209
23,9230	0,0140	2,0564
24,0097	0,0145	2,0564
24,0932	0,0144	2,0918
24,1831	0,0145	2,0564
24,2827	0,0146	2,0564
24,3565	0,0142	2,0209
24,4368	0,0145	2,0564
24,5267	0,0142	2,0209
24,5942	0,0144	2,0564
24,6520	0,0146	2,0564
24,7772	0,0144	2,0918
24,8671	0,0142	2,0564
24,9602	0,0144	2,0564
25,0148	0,0146	2,0209
25,1047	0,0144	2,0564
25,2043	0,0142	2,0564
25,2589	0,0144	2,0918
25,3456	0,0146	2,0564
25,4579	0,0139	2,0918
25,5350	0,0137	2,0564
25,6185	0,0144	2,0564
25,6892	0,0144	2,0209
25,7887	0,0142	2,0564
25,8658	0,0144	2,0564
25,9589	0,0142	2,0918
26,0135	0,0145	2,0209
26,1291	0,0140	2,0564
26,1772	0,0142	2,0564
26,2928	0,0140	2,0564
26,3506	0,0144	2,0564
26,4438	0,0139	2,0564
26,5433	0,0140	2,0564
26,6172	0,0139	2,0564
26,6878	0,0139	2,0564
26,7906	0,0136	2,0918
26,8580	0,0142	2,0209
26,9447	0,0140	2,0564
27,0154	0,0140	2,0564
27,1149	0,0139	2,0918
27,1952	0,0144	2,1628
27,2433	0,0137	2,0564
27,3429	0,0140	2,0564
27,4424	0,0139	2,0918
27,5259	0,0142	2,0564
27,5869	0,0135	2,0564
27,6865	0,0134	2,0564
27,7668	0,0132	2,0918
27,8503	0,0134	2,0564
27,9016	0,0139	2,0564
27,9980	0,0135	2,0564
28,0911	0,0136	2,0564
28,1264	0,0134	2,0564
28,2324	0,0136	2,0918
28,3287	0,0137	2,0918
28,3961	0,0135	2,0564
28,4828	0,0135	2,0564
28,5663	0,0132	2,0209
28,6370	0,0136	2,0209
28,7173	0,0134	2,0918
28,7975	0,0136	2,0564
28,8553	0,0130	2,0564
28,9517	0,0132	2,0918
29,0416	0,0134	2,0918
29,1026	0,0130	2,0564
29,1668	0,0130	2,0564
29,2760	0,0134	2,0209
29,3466	0,0130	2,0564
29,3852	0,0134	2,0918
29,4879	0,0129	2,0564
29,5811	0,0125	2,0564
29,6517	0,0126	2,0918
29,6902	0,0130	2,0564
29,8026	0,0130	2,0918
29,8829	0,0124	2,0918
29,9568	0,0125	2,0918
30,0210	0,0129	2,0564
30,0916	0,0121	2,0564
30,1815	0,0124	2,0209
30,2618	0,0126	2,0209
30,3293	0,0128	2,0209
30,4160	0,0124	2,0918
30,4577	0,0128	2,0918
30,5605	0,0125	2,0918
30,6279	0,0124	2,0564
30,6985	0,0124	2,0564
30,7917	0,0128	2,0209
30,8495	0,0125	2,0564
30,8816	0,0124	2,0564
31,0004	0,0118	2,0918
31,0646	0,0124	2,0564
31,1320	0,0120	2,0918
31,2155	0,0119	2,0564
31,2894	0,0118	2,0564
31,3568	0,0117	2,0564
31,4210	0,0118	2,0564
31,5013	0,0119	2,0564
31,5816	0,0120	2,0564
31,6458	0,0118	2,0564
31,6844	0,0121	2,0918
31,7807	0,0119	2,0918
31,8481	0,0114	2,0918
31,9380	0,0115	2,0564
31,9573	0,0118	2,0564
32,0376	0,0117	2,0209
32,1436	0,0118	2,0564
32,2014	0,0117	2,0564
32,2624	0,0114	2,0564
32,3105	0,0112	2,0564
32,4004	0,0112	2,0918
32,4775	0,0110	2,0564
32,5417	0,0112	2,0209
32,6060	0,0110	2,0564
32,6766	0,0115	2,0918
32,7408	0,0110	2,0918
32,7986	0,0108	2,0918
32,8821	0,0114	2,0564
32,9335	0,0105	2,0564
32,9399	0,0110	2,0209
33,0555	0,0109	2,0918
33,1229	0,0105	2,0564
33,2000	0,0107	2,0918
33,2321	0,0108	2,0564
33,2964	0,0101	2,0918
33,3798	0,0107	2,0564
33,4473	0,0101	2,0918
33,4826	0,0103	2,0209
33,5629	0,0101	2,0564
33,6432	0,0101	2,0564
33,7010	0,0099	2,0918
33,7299	0,0102	2,0564
33,8166	0,0102	2,0564
33,8840	0,0102	2,0209
33,9386	0,0097	2,0564
33,9996	0,0099	2,0209
34,0702	0,0103	2,0564
34,1248	0,0091	2,0564
34,1858	0,0096	2,0918

14.12.2015	16:20:30
V	I	G
[V]	[A]	[W/m²]
0,1606	0,0115	1,4891
0,2473	0,0114	1,4537
0,3179	0,0118	1,4891
0,4014	0,0118	1,4182
0,4624	0,0119	1,4891
0,5587	0,0120	1,4182
0,6326	0,0114	1,5246
0,6936	0,0117	1,4537
0,7899	0,0117	1,4891
0,8766	0,0117	1,4537
0,9473	0,0117	1,4891
1,0179	0,0119	1,4182
1,0982	0,0117	1,4537
1,1817	0,0118	1,4537
1,2395	0,0115	1,4891
1,3262	0,0118	1,4537
1,4001	0,0115	1,5246
1,4579	0,0118	1,4537
1,5574	0,0115	1,4891
1,6345	0,0118	1,4537
1,6859	0,0115	1,4891
1,7597	0,0117	1,4537
1,8560	0,0115	1,4891
1,9299	0,0117	1,4891
1,9845	0,0119	1,4537
2,0808	0,0115	1,4537
2,1515	0,0118	1,4891
2,2093	0,0114	1,4537
2,3152	0,0114	1,4891
2,3570	0,0118	1,4537
2,4212	0,0117	1,4891
2,5272	0,0118	1,4891
2,6074	0,0117	1,4891
2,6781	0,0112	1,4537
2,7359	0,0115	1,4537
2,8258	0,0110	1,4537
2,8997	0,0120	1,4891
2,9478	0,0115	1,4537
3,0506	0,0115	1,4891
3,1277	0,0119	1,5246
3,1694	0,0121	1,5246
3,2689	0,0119	1,4891
3,3364	0,0117	1,4891
3,3942	0,0117	1,4537
3,4873	0,0117	1,4891
3,5740	0,0118	1,4537
3,6575	0,0120	1,4537
3,7089	0,0114	1,4891
3,7924	0,0115	1,4891
3,8662	0,0115	1,4537
3,9144	0,0119	1,4891
4,0171	0,0117	1,4537
4,0910	0,0110	1,4891
4,1327	0,0119	1,4537
4,2194	0,0117	1,4891
4,3126	0,0117	1,4537
4,3736	0,0120	1,4537
4,4442	0,0112	1,4537
4,5309	0,0115	1,4537
4,5662	0,0115	1,4537
4,6594	0,0119	1,4537
4,7461	0,0119	1,4891
4,8007	0,0119	1,4537
4,8681	0,0117	1,4891
4,9676	0,0118	1,4891
5,0415	0,0118	1,4537
5,0768	0,0118	1,4537
5,1860	0,0114	1,4537
5,2502	0,0114	1,4891
5,3241	0,0115	1,4537
5,4044	0,0115	1,5246
5,4718	0,0114	1,4182
5,5167	0,0120	1,4891
5,6034	0,0119	1,4891
5,6934	0,0115	1,4891
5,7576	0,0117	1,4182
5,8154	0,0115	1,4537
5,9021	0,0115	1,4182
5,9792	0,0112	1,4891
6,0241	0,0121	1,4537
6,1108	0,0115	1,4891
6,1815	0,0117	1,4537
6,2842	0,0120	1,4891
6,3260	0,0114	1,4537
6,4127	0,0110	1,4891
6,4801	0,0118	1,4537
6,5475	0,0118	1,4537
6,6246	0,0115	1,4537
6,7081	0,0115	1,4891
6,7370	0,0121	1,4537
6,8429	0,0118	1,4891
6,9136	0,0117	1,4891
6,9874	0,0118	1,4537
7,0613	0,0109	1,4537
7,1448	0,0117	1,5246
7,2058	0,0118	1,4537
7,2765	0,0118	1,5246
7,3567	0,0118	1,4537
7,4177	0,0117	1,4891
7,4755	0,0119	1,4537
7,5751	0,0118	1,4537
7,6554	0,0118	1,4537
7,6971	0,0120	1,4537
7,7870	0,0114	1,4537
7,8545	0,0115	1,5246
7,9444	0,0119	1,4537
8,0086	0,0115	1,5246
8,0857	0,0118	1,4891
8,1531	0,0117	1,4891
8,2237	0,0117	1,4182
8,2944	0,0118	1,4891
8,3747	0,0119	1,4537
8,3971	0,0115	1,4891
8,5095	0,0114	1,4891
8,5866	0,0112	1,4891
8,6316	0,0119	1,4537
8,7311	0,0115	1,4891
8,8082	0,0119	1,4537
8,8563	0,0118	1,4891
8,9462	0,0115	1,4537
9,0073	0,0115	1,5246
9,0811	0,0117	1,4537
9,1518	0,0114	1,5246
9,1967	0,0114	1,4537
9,3123	0,0112	1,4537
9,3541	0,0120	1,4182
9,4440	0,0117	1,4537
9,5178	0,0117	1,4537
9,5885	0,0112	1,5246
9,6366	0,0117	1,4537
9,7298	0,0115	1,4891
9,8229	0,0112	1,4537
9,8646	0,0112	1,4891
9,9610	0,0117	1,4537
10,0156	0,0118	1,4891
10,0605	0,0117	1,4537
10,1568	0,0112	1,4891
10,2468	0,0119	1,4891
10,2789	0,0117	1,4537
10,3816	0,0117	1,4537
10,4555	0,0117	1,4891
10,5133	0,0115	1,4891
10,5839	0,0115	1,4537
10,6610	0,0112	1,4891
10,7188	0,0117	1,4891
10,7894	0,0117	1,4891
10,8729	0,0115	1,5600
10,9372	0,0117	1,4537
10,9982	0,0114	1,4537
11,0945	0,0115	1,4537
11,1619	0,0118	1,5246
11,2069	0,0117	1,4891
11,3032	0,0115	1,4891
11,3835	0,0114	1,4537
11,4477	0,0114	1,5246
11,5184	0,0119	1,4537
11,5890	0,0121	1,4891
11,6661	0,0114	1,4891
11,7014	0,0121	1,4891
11,8106	0,0119	1,4537
11,8812	0,0118	1,4891
11,9294	0,0119	1,4537
12,0322	0,0119	1,4891
12,0932	0,0119	1,4182
12,1606	0,0117	1,4891
12,2312	0,0115	1,4537
12,3115	0,0117	1,4891
12,3790	0,0117	1,4537
12,4335	0,0115	1,4891
12,5267	0,0114	1,4182
12,5909	0,0110	1,5246
12,6423	0,0117	1,4537
12,7193	0,0114	1,4891
12,8093	0,0114	1,4891
12,8799	0,0119	1,4891
12,9441	0,0118	1,4537
13,0148	0,0118	1,4891
13,0886	0,0118	1,4537
13,1496	0,0117	1,5246
13,2299	0,0115	1,4182
13,2941	0,0117	1,4891
13,3487	0,0117	1,4537
13,4322	0,0117	1,4891
13,5125	0,0117	1,4537
13,5607	0,0114	1,4891
13,6506	0,0114	1,4891
13,7212	0,0115	1,4891
13,7726	0,0121	1,4891
13,8561	0,0119	1,4891
13,9332	0,0115	1,4891
14,0070	0,0110	1,4891
14,0391	0,0118	1,4537
14,1355	0,0112	1,4891
14,2254	0,0117	1,4537
14,2639	0,0118	1,4537
14,3731	0,0115	1,4182
14,4212	0,0112	1,4891
14,4726	0,0120	1,4537
14,5786	0,0119	1,4891
14,6428	0,0117	1,4537
14,7263	0,0117	1,4891
14,7648	0,0115	1,4537
14,8612	0,0114	1,4537
14,9286	0,0114	1,4537
14,9960	0,0112	1,4537
15,0699	0,0114	1,4182
15,1213	0,0115	1,4891
15,1919	0,0117	1,4537
15,2850	0,0115	1,4537
15,3461	0,0120	1,4891
15,4360	0,0114	1,5246
15,4841	0,0115	1,4891
15,5676	0,0117	1,5246
15,6511	0,0115	1,4891
15,6993	0,0117	1,4891
15,7796	0,0114	1,4891
15,8598	0,0114	1,4891
15,8952	0,0120	1,4537
15,9979	0,0117	1,5246
16,0621	0,0112	1,4537
16,1135	0,0117	1,5246
16,1938	0,0114	1,4182
16,2741	0,0115	1,4891
16,3383	0,0115	1,4891
16,3929	0,0115	1,4537
16,4764	0,0114	1,4891
16,5406	0,0118	1,4891
16,5984	0,0118	1,4891
16,7044	0,0115	1,5246
16,7461	0,0117	1,4891
16,7943	0,0112	1,4182
16,9035	0,0115	1,4537
16,9613	0,0118	1,4891
17,0191	0,0114	1,4537
17,1154	0,0110	1,4891
17,1796	0,0112	1,5246
17,2406	0,0115	1,5246
17,3209	0,0118	1,4891
17,3883	0,0114	1,4537
17,4365	0,0115	1,4537
17,5072	0,0112	1,4891
17,5971	0,0115	1,4891
17,6677	0,0112	1,5246
17,7223	0,0115	1,5246
17,8058	0,0117	1,5246
17,8475	0,0109	1,5246
17,9631	0,0115	1,5246
18,0177	0,0112	1,4537
18,1044	0,0119	1,4537
18,1654	0,0115	1,4537
18,2329	0,0115	1,4891
18,3067	0,0117	1,4537
18,3774	0,0118	1,4891
18,4095	0,0119	1,4537
18,5155	0,0117	1,4891
18,6054	0,0117	1,4182
18,6567	0,0115	1,4891
18,7402	0,0118	1,4891
18,8109	0,0112	1,4891
18,8912	0,0115	1,4537
18,9329	0,0110	1,4891
19,0068	0,0114	1,4537
19,0774	0,0110	1,4537
19,1095	0,0115	1,4891
19,2315	0,0120	1,4891
19,2861	0,0115	1,4537
19,3182	0,0118	1,4891
19,4017	0,0114	1,5246
19,5045	0,0114	1,4891
19,5559	0,0117	1,4537
19,6361	0,0115	1,4537
19,7100	0,0117	1,4537
19,7710	0,0119	1,4537
19,8449	0,0119	1,4537
19,9187	0,0115	1,5246
19,9894	0,0115	1,4537
20,0472	0,0115	1,4891
20,1403	0,0114	1,4537
20,2077	0,0115	1,5246
20,2527	0,0115	1,4182
20,3426	0,0114	1,5246
20,4261	0,0115	1,4537
20,4871	0,0117	1,5246
20,5449	0,0117	1,4891
20,6220	0,0114	1,4891
20,6830	0,0109	1,4891
20,7440	0,0115	1,4891
20,8275	0,0118	1,4891
20,8885	0,0114	1,4891
20,9238	0,0117	1,4891
21,0298	0,0115	1,5246
21,0876	0,0112	1,4891
21,1679	0,0110	1,5246
21,2481	0,0119	1,4891
21,3156	0,0117	1,4891
21,3862	0,0114	1,4537
21,4440	0,0117	1,4537
21,5082	0,0117	1,4537
21,5917	0,0114	1,4891
21,6367	0,0120	1,4537
21,7330	0,0114	1,4891
21,7972	0,0115	1,4891
21,8583	0,0115	1,5246
21,9289	0,0112	1,4537
22,0060	0,0110	1,4891
22,0895	0,0112	1,4537
22,1408	0,0115	1,4537
22,1986	0,0115	1,4537
22,2886	0,0115	1,4891
22,3335	0,0114	1,4891
22,4234	0,0115	1,4891
22,4973	0,0112	1,4537
22,5165	0,0114	1,4891
22,6418	0,0112	1,4537
22,7060	0,0115	1,4537
22,7606	0,0117	1,4537
22,8473	0,0109	1,4537
22,8826	0,0114	1,4891
22,9757	0,0115	1,4891
23,0367	0,0115	1,4182
23,1138	0,0107	1,5246
23,1909	0,0112	1,4537
23,2326	0,0114	1,4891
23,3129	0,0115	1,4891
23,3932	0,0108	1,5246
23,4253	0,0110	1,4891
23,5120	0,0110	1,4891
23,5955	0,0114	1,4537
23,6501	0,0112	1,4891
23,7239	0,0110	1,4891
23,7978	0,0110	1,4891
23,8524	0,0112	1,4537
23,9198	0,0114	1,5246
23,9969	0,0110	1,4537
24,0579	0,0107	1,5246
24,1061	0,0112	1,4891
24,2024	0,0110	1,4891
24,2602	0,0107	1,4891
24,3373	0,0114	1,4537
24,3983	0,0109	1,4891
24,4657	0,0112	1,4537
24,5235	0,0108	1,4891
24,5942	0,0112	1,5246
24,6680	0,0110	1,4891
24,7226	0,0115	1,5246
24,7868	0,0114	1,4537
24,8607	0,0110	1,5246
24,9377	0,0114	1,4891
24,9891	0,0112	1,4891
25,0630	0,0109	1,4537
25,1336	0,0109	1,5246
25,2235	0,0109	1,4182
25,2589	0,0110	1,4891
25,3456	0,0110	1,4537
25,4034	0,0110	1,4891
25,4515	0,0105	1,4537
25,5511	0,0112	1,4537
25,5992	0,0110	1,4891
25,6506	0,0110	1,4891
25,7405	0,0109	1,4537
25,7951	0,0107	1,4891
25,8593	0,0114	1,4537
25,9396	0,0105	1,5246
26,0071	0,0105	1,4537
26,0616	0,0109	1,4891
26,1130	0,0110	1,4537
26,1997	0,0108	1,5246
26,2607	0,0112	1,4537
26,3057	0,0105	1,4891
26,3956	0,0105	1,4537
26,4534	0,0109	1,4891
26,4951	0,0105	1,4537
26,5851	0,0107	1,4891
26,6364	0,0105	1,4537
26,7103	0,0103	1,4891
26,7842	0,0108	1,4537
26,8291	0,0108	1,4891
26,9062	0,0105	1,4537
26,9672	0,0101	1,5246
27,0378	0,0103	1,4537
27,0764	0,0105	1,5246
27,1310	0,0109	1,4891
27,2433	0,0105	1,4891
27,2915	0,0108	1,4537
27,3397	0,0108	1,4891
27,4232	0,0105	1,4537
27,4745	0,0102	1,4537
27,5484	0,0103	1,4891
27,6062	0,0103	1,4891
27,6672	0,0107	1,4891
27,7443	0,0101	1,4891
27,7925	0,0101	1,4891
27,8727	0,0098	1,4891
27,9241	0,0098	1,4537
27,9659	0,0101	1,5246
28,0493	0,0103	1,4537
28,1039	0,0101	1,4537
28,1682	0,0101	1,4891
28,2388	0,0103	1,4891
28,3030	0,0098	1,4537
28,3705	0,0098	1,4891
28,4186	0,0101	1,4537
28,4861	0,0101	1,5246
28,5214	0,0096	1,4891

15.12.2015	08:50:30
V	I	G
[V]	[A]	[W/m²]
0,1862	0,0140	1,8437
0,2762	0,0136	1,8437
0,3725	0,0142	1,9146
0,4624	0,0142	1,9855
0,5555	0,0140	1,9500
0,6358	0,0142	1,9146
0,7289	0,0139	1,9146
0,8253	0,0137	1,9146
0,9088	0,0142	1,9146
0,9890	0,0139	1,9500
1,0854	0,0144	1,9500
1,1753	0,0139	1,9855
1,2652	0,0135	1,9146
1,3487	0,0136	1,9500
1,4418	0,0135	1,9146
1,5221	0,0144	1,9146
1,6184	0,0142	1,9146
1,7051	0,0136	1,9500
1,7758	0,0145	1,9500
1,8817	0,0142	1,9146
1,9749	0,0142	1,9146
2,0327	0,0140	1,9146
2,1386	0,0144	1,9146
2,2350	0,0139	1,9146
2,3249	0,0140	1,9500
2,3859	0,0144	1,9500
2,4886	0,0144	1,9146
2,5625	0,0140	1,9146
2,6460	0,0142	1,8437
2,7455	0,0142	1,9146
2,8290	0,0136	1,8437
2,9093	0,0140	1,9146
3,0024	0,0142	1,9146
3,0988	0,0139	1,9500
3,1726	0,0142	1,9146
3,2722	0,0139	1,9146
3,3396	0,0145	1,9146
3,4359	0,0140	1,9146
3,5098	0,0142	1,9146
3,6125	0,0142	1,9500
3,6800	0,0135	1,9500
3,7763	0,0140	1,9855
3,8694	0,0140	1,9146
3,9593	0,0137	1,9146
4,0364	0,0142	1,9146
4,1103	0,0140	1,9146
4,2098	0,0142	1,9146
4,2997	0,0136	1,9500
4,3607	0,0139	1,9146
4,4731	0,0140	1,9146
4,5438	0,0142	1,9146
4,6401	0,0142	1,9146
4,7204	0,0139	1,9146
4,7974	0,0145	1,9146
4,8938	0,0136	1,9146
4,9741	0,0139	1,9146
5,0608	0,0142	1,9146
5,1507	0,0139	1,9500
5,2149	0,0140	1,8437
5,2984	0,0142	1,9146
5,3947	0,0142	1,9146
5,4750	0,0140	1,9855
5,5745	0,0140	1,9146
5,6548	0,0136	1,9500
5,7223	0,0140	1,8437
5,8186	0,0142	1,9500
5,9117	0,0142	1,9146
5,9792	0,0139	1,9500
6,0594	0,0142	1,9500
6,1622	0,0140	1,9500
6,2425	0,0142	1,9500
6,3163	0,0139	1,9500
6,4159	0,0136	1,9146
6,4929	0,0139	1,9500
6,5668	0,0142	1,9146
6,6760	0,0139	1,9500
6,7562	0,0136	1,9146
6,8333	0,0137	1,9146
6,9072	0,0139	1,9146
7,0003	0,0137	1,9500
7,0998	0,0139	1,9500
7,1512	0,0139	1,9855
7,2443	0,0139	1,9500
7,3407	0,0136	1,9146
7,4113	0,0142	1,9500
7,5077	0,0140	1,9500
7,5847	0,0140	1,9146
7,6778	0,0144	1,9146
7,7678	0,0140	1,9500
7,8352	0,0139	1,9146
7,9123	0,0137	1,8437
7,9861	0,0139	1,9146
8,0824	0,0137	1,9146
8,1916	0,0139	1,9500
8,2526	0,0137	1,9146
8,3393	0,0137	1,9500
8,4164	0,0140	1,9146
8,4967	0,0137	1,9500
8,5962	0,0140	1,9500
8,6765	0,0139	1,9855
8,7600	0,0140	1,9500
8,8435	0,0142	1,9500
8,9238	0,0140	1,9146
9,0040	0,0139	1,9500
9,0747	0,0137	1,9146
9,1774	0,0137	1,9146
9,2706	0,0144	1,9500
9,3380	0,0137	1,9855
9,4183	0,0144	1,9500
9,4954	0,0145	1,9500
9,5821	0,0145	1,9146
9,6720	0,0140	1,9146
9,7779	0,0142	1,9146
9,8422	0,0139	1,9500
9,9032	0,0140	1,9500
10,0123	0,0137	1,9500
10,0990	0,0136	1,8437
10,1697	0,0137	1,9146
10,2564	0,0137	1,9146
10,3367	0,0137	1,9500
10,4170	0,0144	1,9146
10,5101	0,0144	1,9500
10,5871	0,0142	1,9500
10,6835	0,0137	1,9500
10,7413	0,0146	1,9500
10,8472	0,0136	1,9500
10,9211	0,0139	1,9146
11,0014	0,0140	1,9146
11,0977	0,0139	1,9500
11,1812	0,0142	1,9500
11,2390	0,0142	1,9500
11,3385	0,0144	1,9146
11,4156	0,0144	1,9500
11,4991	0,0139	1,9500
11,5698	0,0140	1,9146
11,6725	0,0139	1,9500
11,7464	0,0142	1,9146
11,8234	0,0137	1,9500
11,9101	0,0137	1,9146
12,0065	0,0136	1,9855
12,0707	0,0139	1,9146
12,1670	0,0140	1,9855
12,2537	0,0142	1,8437
12,3372	0,0135	1,9500
12,3950	0,0144	1,9146
12,5010	0,0135	1,9855
12,5781	0,0140	1,9855
12,6455	0,0136	1,9855
12,7226	0,0136	1,9500
12,8157	0,0139	1,9855
12,8960	0,0142	1,9146
13,0051	0,0136	1,9146
13,0758	0,0140	1,9146
13,1528	0,0140	1,9500
13,2363	0,0142	1,9500
13,3327	0,0136	1,9500
13,3969	0,0137	1,9146
13,4547	0,0139	1,9500
13,5703	0,0140	1,9146
13,6634	0,0140	1,9146
13,7244	0,0142	1,9146
13,8079	0,0139	1,9855
13,8978	0,0136	1,9500
13,9845	0,0139	1,9500
14,0616	0,0139	1,9146
14,1419	0,0140	1,9146
14,2286	0,0139	1,9146
14,3185	0,0140	1,9146
14,3956	0,0139	1,9500
14,4630	0,0142	1,9855
14,5336	0,0140	1,9500
14,6396	0,0140	1,9146
14,7167	0,0136	1,9500
14,7905	0,0140	1,9500
14,8837	0,0140	1,9146
14,9768	0,0140	1,9500
15,0506	0,0139	1,9500
15,1213	0,0140	1,9500
15,2208	0,0142	1,9500
15,3107	0,0140	1,9500
15,3589	0,0144	1,9500
15,4488	0,0142	1,9855
15,5451	0,0139	1,9500
15,6126	0,0142	1,9500
15,7025	0,0139	1,9146
15,7988	0,0140	1,9500
15,8727	0,0137	1,9500
15,9465	0,0144	1,9855
16,0332	0,0142	1,9500
16,1135	0,0142	1,9500
16,1842	0,0144	1,9146
16,2644	0,0144	1,9500
16,3640	0,0145	1,9500
16,4346	0,0137	1,9500
16,5342	0,0140	1,9500
16,6112	0,0142	1,9500
16,6787	0,0137	1,9146
16,7750	0,0135	1,9146
16,8585	0,0139	1,9500
16,9259	0,0137	1,9500
16,9870	0,0145	1,9855
17,1026	0,0135	1,9500
17,1893	0,0137	1,8437
17,2535	0,0140	1,9500
17,3402	0,0137	1,9500
17,4365	0,0140	1,9855
17,5200	0,0140	1,9500
17,5746	0,0144	1,9855
17,6709	0,0144	1,9146
17,7576	0,0139	1,9855
17,8475	0,0140	1,8437
17,9246	0,0140	1,9500
17,9888	0,0135	1,9146
18,0595	0,0137	1,9500
18,1622	0,0142	1,9500
18,2618	0,0137	1,9855
18,3356	0,0140	1,9500
18,4063	0,0140	1,9500
18,4833	0,0137	1,9146
18,5925	0,0137	1,9500
18,6728	0,0142	1,9500
18,7370	0,0142	1,9855
18,8012	0,0144	1,9146
18,9072	0,0137	1,9855
18,9875	0,0136	1,9146
19,0646	0,0137	1,9500
19,1320	0,0137	1,9500
19,2283	0,0140	1,9500
19,3279	0,0139	1,9500
19,3921	0,0139	1,9500
19,4563	0,0139	1,9146
19,5655	0,0136	1,9500
19,6458	0,0137	1,9146
19,7261	0,0137	1,9146
19,7999	0,0139	1,9500
19,8802	0,0144	1,9855
19,9540	0,0146	1,9855
20,0600	0,0136	1,9855
20,1210	0,0139	1,9146
20,2013	0,0139	1,9146
20,2912	0,0140	1,9146
20,3940	0,0142	1,9500
20,4389	0,0137	1,9500
20,5192	0,0144	1,9855
20,6380	0,0137	1,9146
20,7183	0,0139	1,9500
20,7472	0,0142	1,9146
20,8628	0,0139	1,9500
20,9559	0,0139	1,9500
21,0234	0,0140	1,9855
21,1068	0,0137	1,9855
21,1775	0,0140	1,9500
21,2578	0,0142	1,9500
21,3509	0,0137	1,9146
21,4408	0,0139	1,9500
21,5179	0,0137	1,9855
21,5628	0,0144	1,9146
21,6688	0,0137	1,9855
21,7683	0,0140	1,9500
21,8454	0,0135	1,9146
21,9128	0,0136	1,9500
21,9995	0,0135	1,9855
22,0798	0,0137	1,9855
22,1665	0,0136	1,9855
22,2340	0,0137	1,9500
22,3142	0,0135	1,9500
22,3688	0,0146	1,9500
22,4876	0,0139	1,9146
22,5679	0,0136	1,9500
22,6289	0,0140	1,9855
22,7156	0,0139	1,9855
22,8120	0,0137	1,9500
22,9019	0,0142	1,9500
22,9789	0,0137	1,9500
23,0432	0,0136	1,9500
23,1267	0,0134	1,9855
23,1877	0,0142	1,9500
23,2904	0,0137	1,9500
23,3707	0,0135	1,9500
23,4381	0,0137	1,9855
23,5248	0,0137	1,9500
23,6083	0,0134	1,9146
23,6822	0,0140	1,9146
23,7689	0,0140	1,9855
23,8427	0,0134	1,9500
23,9262	0,0139	1,9500
23,9872	0,0140	1,9500
24,0932	0,0136	1,9146
24,1478	0,0137	1,9146
24,2313	0,0135	2,0209
24,3276	0,0135	1,9855
24,4047	0,0135	1,9500
24,4625	0,0132	1,9855
24,5685	0,0137	1,9500
24,6552	0,0136	1,9146
24,7258	0,0136	1,9855
24,7772	0,0136	1,9500
24,8864	0,0137	1,9855
24,9731	0,0135	1,9855
25,0309	0,0136	2,0209
25,1079	0,0136	1,9500
25,1850	0,0136	1,9500
25,2589	0,0140	1,9146
25,3520	0,0134	1,9500
25,4258	0,0139	1,9146
25,4965	0,0136	1,9855
25,5832	0,0134	1,9855
25,6570	0,0135	1,9500
25,7277	0,0134	1,9500
25,8080	0,0137	1,9500
25,8947	0,0129	1,9146
25,9814	0,0134	1,9500
26,0295	0,0139	1,9500
26,1227	0,0142	1,9500
26,2094	0,0135	1,9500
26,2864	0,0134	1,9500
26,3603	0,0130	1,9146
26,4406	0,0130	1,9500
26,5240	0,0136	1,9146
26,5851	0,0130	1,9855
26,6653	0,0130	1,9855
26,7392	0,0129	1,9855
26,8066	0,0136	1,9146
26,8933	0,0135	1,9500
26,9800	0,0130	1,9500
27,0410	0,0132	1,9500
27,1310	0,0134	1,9146
27,1952	0,0129	1,9500
27,2755	0,0132	1,9500
27,3525	0,0129	1,9500
27,4264	0,0128	1,9146
27,5034	0,0132	1,9500
27,5612	0,0134	1,9500
27,6544	0,0126	1,9500
27,7347	0,0130	1,9146
27,7892	0,0128	1,9855
27,8920	0,0124	1,9500
27,9755	0,0128	1,9855
28,0429	0,0130	1,9500
28,1104	0,0124	1,9855
28,1778	0,0128	1,9146
28,2484	0,0129	1,9500
28,3223	0,0129	1,9500
28,3994	0,0128	1,9855
28,4732	0,0132	1,9855
28,5471	0,0124	1,9855
28,6273	0,0126	1,9146
28,7012	0,0121	1,9500
28,7622	0,0129	1,9500
28,8489	0,0125	1,9855
28,9292	0,0121	1,9500
28,9902	0,0126	1,9855
29,0352	0,0124	1,9500
29,1283	0,0124	1,9855
29,2214	0,0124	1,9146
29,2728	0,0125	1,9500
29,3595	0,0124	1,9500
29,4398	0,0120	1,9855
29,4911	0,0119	1,9855
29,5618	0,0124	1,9855
29,6485	0,0125	1,9855
29,6999	0,0120	1,9855
29,7609	0,0118	1,9500
29,8540	0,0120	1,9855
29,9279	0,0124	1,9855
29,9760	0,0120	1,9500
30,0756	0,0120	1,9146
30,1205	0,0121	1,9500
30,2008	0,0121	1,9500
30,2747	0,0121	1,9855
30,3453	0,0124	1,9855
30,4063	0,0117	1,9500
30,4770	0,0120	1,9146
30,5572	0,0120	1,9500
30,6311	0,0112	1,9500
30,6761	0,0115	1,9855
30,7531	0,0118	1,9500
30,8206	0,0120	1,9855
30,8944	0,0119	1,9146
30,9586	0,0118	1,9855
31,0357	0,0114	1,9500
31,0935	0,0112	1,9855
31,1609	0,0115	1,9500
31,2220	0,0114	1,9500
31,2894	0,0115	1,9146
31,3600	0,0114	1,9500
31,4403	0,0115	1,9146
31,4981	0,0112	1,9855
31,5623	0,0115	1,9500
31,6490	0,0112	1,9855
31,6972	0,0112	1,9500
31,7486	0,0112	1,9855
31,8256	0,0114	1,9146
31,8931	0,0105	1,9500
31,9605	0,0109	1,9500
32,0151	0,0112	1,9855
32,1018	0,0110	1,9855
32,1500	0,0108	1,9855
32,1981	0,0109	1,9500
32,2752	0,0105	1,9855
32,3459	0,0107	1,9146
32,3940	0,0108	1,9500
32,4775	0,0105	1,9855
32,5257	0,0109	1,9855
32,6027	0,0107	1,9500
32,6670	0,0105	1,9500
32,7183	0,0105	1,9500
32,7697	0,0103	1,9500
32,8179	0,0103	1,9146
32,8950	0,0107	1,9146
32,9624	0,0107	1,9855
33,0106	0,0103	1,9855
33,0812	0,0101	1,9855
33,1519	0,0099	1,9855
33,2064	0,0105	1,9855
33,2546	0,0102	1,9500
33,3188	0,0099	1,9146
33,3766	0,0096	1,8437
33,4248	0,0099	1,9500
33,4987	0,0097	1,9855

15.12.2015	08:55:30
V	I	G
[V]	[A]	[W/m²]
0,1509	0,0224	3,3682
0,2954	0,0226	3,4037
0,3982	0,0222	3,3682
0,5716	0,0232	3,4037
0,7065	0,0226	3,3328
0,8542	0,0229	3,4037
0,9826	0,0228	3,3328
1,0982	0,0226	3,3682
1,2684	0,0221	3,3682
1,3840	0,0228	3,3682
1,5317	0,0222	3,3328
1,6537	0,0224	3,3682
1,7790	0,0231	3,4037
1,9331	0,0224	3,3682
2,0712	0,0227	3,3682
2,2028	0,0228	3,3328
2,3313	0,0228	3,3682
2,4469	0,0227	3,3682
2,6042	0,0227	3,3682
2,7487	0,0227	3,3328
2,8643	0,0222	3,3328
3,0024	0,0226	3,3328
3,1244	0,0227	3,3682
3,2882	0,0228	3,4037
3,4167	0,0224	3,4037
3,5323	0,0226	3,3682
3,6703	0,0226	3,3682
3,7827	0,0228	3,4391
3,9433	0,0227	3,3682
4,0846	0,0228	3,3682
4,2130	0,0226	3,3328
4,3318	0,0221	3,4037
4,4571	0,0231	3,3682
4,6208	0,0224	3,4037
4,7300	0,0228	3,3682
4,8970	0,0228	3,4037
4,9965	0,0228	3,3328
5,1250	0,0229	3,3682
5,2759	0,0221	3,3682
5,4044	0,0227	3,3682
5,5456	0,0227	3,3328
5,6645	0,0228	3,3682
5,7672	0,0226	3,3328
5,9278	0,0229	3,3682
6,0626	0,0228	3,3328
6,2039	0,0224	3,3682
6,3292	0,0227	3,3682
6,4287	0,0228	3,3682
6,5861	0,0226	3,3682
6,7306	0,0224	3,4037
6,8526	0,0221	3,3682
6,9907	0,0227	3,3682
7,0806	0,0228	3,3328
7,2508	0,0227	3,3328
7,3728	0,0222	3,3682
7,5173	0,0226	3,4037
7,6200	0,0226	3,4037
7,7549	0,0226	3,3682
7,9026	0,0227	3,2973
8,0118	0,0224	3,3328
8,1627	0,0224	3,3682
8,2719	0,0226	3,4037
8,3971	0,0224	3,3328
8,5513	0,0220	3,3328
8,6829	0,0222	3,3328
8,8114	0,0222	3,3682
8,9334	0,0224	3,3682
9,0618	0,0220	3,4037
9,2031	0,0224	3,3328
9,3252	0,0228	3,3682
9,4632	0,0228	3,3682
9,5885	0,0224	3,4037
9,7073	0,0227	3,3682
9,8678	0,0222	3,4037
9,9738	0,0224	3,3328
10,1183	0,0224	3,3682
10,2146	0,0222	3,3328
10,3688	0,0222	3,3682
10,5004	0,0227	3,3328
10,6257	0,0226	3,4037
10,7541	0,0222	3,3682
10,8729	0,0227	3,4037
11,0142	0,0224	3,3682
11,1202	0,0226	3,3682
11,2807	0,0228	3,3682
11,3996	0,0231	3,4037
11,5344	0,0228	3,3682
11,6565	0,0226	3,4037
11,7913	0,0229	3,3682
11,9326	0,0224	3,3682
12,0546	0,0224	3,3682
12,1638	0,0229	3,4037
12,3083	0,0229	3,3682
12,4239	0,0227	3,4037
12,5716	0,0228	3,3328
12,7097	0,0226	3,4037
12,7964	0,0224	3,4037
12,9505	0,0227	3,4391
13,0790	0,0228	3,3328
13,2299	0,0226	3,3682
13,3391	0,0222	3,3328
13,4643	0,0227	3,4037
13,5767	0,0228	3,3682
13,7309	0,0224	3,3682
13,8561	0,0224	3,3682
13,9845	0,0226	3,4037
14,1001	0,0227	3,3682
14,2446	0,0226	3,4037
14,3667	0,0228	3,3682
14,4983	0,0229	3,3682
14,6139	0,0226	3,3328
14,7327	0,0226	3,4037
14,8901	0,0227	3,4037
14,9960	0,0224	3,3682
15,1470	0,0222	3,3328
15,2690	0,0224	3,4037
15,3814	0,0226	3,3682
15,5323	0,0222	3,4037
15,6351	0,0222	3,3682
15,7828	0,0227	3,3682
15,8984	0,0229	3,4037
16,0076	0,0226	3,4037
16,1488	0,0224	3,3328
16,3062	0,0227	3,4037
16,4057	0,0224	3,3328
16,5534	0,0226	3,4037
16,6498	0,0226	3,3682
16,8103	0,0221	3,3682
16,9452	0,0224	3,3682
17,0480	0,0220	3,4037
17,1925	0,0226	3,4037
17,2920	0,0226	3,4037
17,4494	0,0226	3,4037
17,5682	0,0220	3,3682
17,7223	0,0227	3,3682
17,8122	0,0224	3,4037
17,9214	0,0222	3,3328
18,0852	0,0226	3,4037
18,2200	0,0222	3,3682
18,3356	0,0226	3,4037
18,4609	0,0224	3,3682
18,5572	0,0224	3,4037
18,7370	0,0227	3,3682
18,8494	0,0222	3,4037
18,9682	0,0227	3,4391
19,1192	0,0227	3,4037
19,2059	0,0231	3,3328
19,3664	0,0227	3,4037
19,4884	0,0227	3,4037
19,6169	0,0226	3,4391
19,7357	0,0226	3,3682
19,8577	0,0224	3,3328
19,9797	0,0221	3,3328
20,1307	0,0228	3,4037
20,2431	0,0224	3,4037
20,3972	0,0222	3,4037
20,4871	0,0227	3,3682
20,6316	0,0221	3,3682
20,7665	0,0226	3,3328
20,8853	0,0224	3,3682
21,0009	0,0222	3,4037
21,1165	0,0226	3,4037
21,2899	0,0226	3,4037
21,3959	0,0226	3,4037
21,5339	0,0226	3,3328
21,6527	0,0222	3,4037
21,7651	0,0228	3,3328
21,9032	0,0221	3,4037
22,0317	0,0231	3,3682
22,1633	0,0222	3,4037
22,2950	0,0227	3,3682
22,3945	0,0231	3,4037
22,5422	0,0224	3,3682
22,6771	0,0222	3,4037
22,7895	0,0226	3,3682
22,9276	0,0226	3,4037
23,0239	0,0227	3,3682
23,1877	0,0224	3,4037
23,2872	0,0228	3,3682
23,4253	0,0222	3,4037
23,5313	0,0221	3,3682
23,6726	0,0224	3,4037
23,8010	0,0226	3,3682
23,9166	0,0222	3,4037
24,0483	0,0221	3,4391
24,1735	0,0221	3,4037
24,2923	0,0222	3,3682
24,4272	0,0226	3,3682
24,5364	0,0218	3,4037
24,6744	0,0226	3,3682
24,8061	0,0226	3,3682
24,9281	0,0222	3,4037
25,0533	0,0222	3,4037
25,1786	0,0220	3,4037
25,2974	0,0221	3,4037
25,4194	0,0221	3,3682
25,5511	0,0226	3,4037
25,6635	0,0220	3,4037
25,8015	0,0222	3,4037
25,9204	0,0218	3,4037
26,0424	0,0220	3,3328
26,1612	0,0224	3,4037
26,2864	0,0224	3,3682
26,4149	0,0221	3,4037
26,5273	0,0213	3,3682
26,6429	0,0221	3,4037
26,7874	0,0218	3,3328
26,9094	0,0220	3,4391
27,0250	0,0213	3,4391
27,1566	0,0216	3,4037
27,2594	0,0220	3,3682
27,3975	0,0218	3,4037
27,5195	0,0218	3,3682
27,6190	0,0218	3,3682
27,7539	0,0217	3,3682
27,8727	0,0213	3,3682
28,0012	0,0217	3,3682
28,1168	0,0212	3,3682
28,2452	0,0217	3,3328
28,3608	0,0212	3,3682
28,4700	0,0213	3,3682
28,5920	0,0216	3,4391
28,7237	0,0210	3,3682
28,8521	0,0209	3,3682
28,9517	0,0210	3,3682
29,0576	0,0210	3,4037
29,2021	0,0211	3,4391
29,3177	0,0210	3,4037
29,4237	0,0210	3,3682
29,5618	0,0207	3,4037
29,6581	0,0211	3,3682
29,7801	0,0211	3,5100
29,8958	0,0206	3,4037
30,0114	0,0202	3,3682
30,1334	0,0202	3,3328
30,2426	0,0211	3,3682
30,3646	0,0200	3,4037
30,4738	0,0201	3,4037
30,5990	0,0204	3,3682
30,7082	0,0204	3,4037
30,8077	0,0201	3,3682
30,9458	0,0206	3,4037
31,0421	0,0202	3,4037
31,1674	0,0200	3,4391
31,2701	0,0199	3,3682
31,3761	0,0200	3,4037
31,5013	0,0200	3,4037
31,6041	0,0199	3,4037
31,6972	0,0197	3,3682
31,8256	0,0194	3,3682
31,9252	0,0204	3,4037
32,0601	0,0193	3,4037
32,1821	0,0193	3,3682
32,2624	0,0197	3,4037
32,3780	0,0193	3,4037
32,4711	0,0195	3,3682
32,5995	0,0188	3,3328
32,7151	0,0194	3,3682
32,8147	0,0190	3,3682
32,9174	0,0189	3,4391
33,0041	0,0193	3,3682
33,1326	0,0189	3,4037
33,2386	0,0188	3,3682
33,3542	0,0183	3,4037
33,4473	0,0189	3,3682
33,5308	0,0183	3,4037
33,6464	0,0180	3,4037
33,7588	0,0184	3,4391
33,8551	0,0179	3,4037
33,9578	0,0175	3,4037
34,0413	0,0180	3,3682
34,1601	0,0184	3,4037
34,2565	0,0177	3,3682
34,3657	0,0179	3,4037
34,4652	0,0177	3,4037
34,5391	0,0175	3,4037
34,6611	0,0169	3,3682
34,7510	0,0174	3,4037
34,8538	0,0172	3,3682
34,9597	0,0174	3,4037
35,0239	0,0175	3,4037
35,1395	0,0171	3,3682
35,2455	0,0167	3,3682
35,3226	0,0166	3,4037
35,4221	0,0164	3,4037
35,5120	0,0163	3,5100
35,6084	0,0161	3,3682
35,7047	0,0162	3,4037
35,7754	0,0158	3,3328
35,8813	0,0162	3,4037
35,9488	0,0156	3,4037
36,0579	0,0161	3,4391
36,1478	0,0158	3,4037
36,2378	0,0157	3,3682
36,3180	0,0155	3,3682
36,3887	0,0155	3,4391
36,4914	0,0146	3,4037
36,5814	0,0147	3,4037
36,6713	0,0152	3,3328
36,7451	0,0147	3,4037
36,8158	0,0146	3,3682
36,9025	0,0139	3,4391
36,9956	0,0144	3,4037
37,0855	0,0139	3,4037
37,1433	0,0144	3,3682
37,2011	0,0140	3,3682
37,3039	0,0134	3,3682
37,3809	0,0140	3,4037
37,4644	0,0132	3,3682
37,5383	0,0139	3,4391
37,5993	0,0135	3,3328
37,6988	0,0137	3,4037
37,7598	0,0124	3,4037
37,8401	0,0124	3,4037
37,9140	0,0126	3,3682
37,9654	0,0125	3,3682
38,0585	0,0126	3,4037
38,1099	0,0125	3,4391
38,1677	0,0118	3,3682
38,2511	0,0119	3,4037
38,3089	0,0117	3,4037
38,3860	0,0115	3,4037
38,4502	0,0112	3,4391
38,5209	0,0109	3,4391
38,5787	0,0110	3,4037
38,6269	0,0108	3,4037
38,6975	0,0105	3,4037
38,7681	0,0107	3,4037
38,8195	0,0101	3,3328
38,8837	0,0102	3,3682
38,9159	0,0103	3,3682
39,0058	0,0099	3,3682
39,0668	0,0101	3,3682
39,1182	0,0098	3,4391
39,1599	0,0093	3,4037
39,2081	0,0093	3,4391
39,2787	0,0090	3,4037

15.12.2015	09:00:30
V	I	G
[V]	[A]	[W/m²]
0,2280	0,0353	5,4246
0,4239	0,0358	5,4601
0,6487	0,0354	5,4601
0,8574	0,0353	5,4955
1,0565	0,0353	5,4601
1,2780	0,0351	5,4601
1,4643	0,0354	5,4955
1,6794	0,0348	5,4601
1,8882	0,0356	5,4246
2,1001	0,0356	5,4601
2,3088	0,0356	5,4601
2,5079	0,0347	5,4601
2,7070	0,0358	5,4601
2,8965	0,0356	5,5310
3,1116	0,0356	5,4955
3,3139	0,0351	5,4601
3,5098	0,0356	5,4601
3,7217	0,0354	5,4955
3,9272	0,0356	5,4955
4,1392	0,0353	5,4601
4,3415	0,0357	5,4246
4,5277	0,0350	5,5310
4,7364	0,0357	5,4955
4,9420	0,0357	5,4955
5,1571	0,0354	5,4601
5,3305	0,0356	5,5310
5,5553	0,0356	5,4601
5,7383	0,0348	5,4601
5,9599	0,0354	5,4601
6,1558	0,0347	5,4955
6,3452	0,0354	5,4955
6,5539	0,0357	5,4955
6,7434	0,0357	5,4955
6,9714	0,0354	5,4601
7,1544	0,0351	5,4601
7,3535	0,0348	5,4955
7,5590	0,0356	5,4955
7,7356	0,0350	5,4601
7,9636	0,0350	5,4955
8,1563	0,0354	5,4955
8,3522	0,0350	5,4601
8,5609	0,0350	5,4601
8,7311	0,0350	5,4601
8,9462	0,0351	5,4601
9,1421	0,0354	5,5310
9,3573	0,0346	5,4601
9,5403	0,0350	5,4601
9,7458	0,0348	5,4601
9,9449	0,0354	5,4955
10,1247	0,0354	5,4955
10,3399	0,0351	5,4246
10,5261	0,0350	5,4601
10,7413	0,0350	5,4601
10,9372	0,0353	5,4955
11,1523	0,0356	5,4601
11,3000	0,0351	5,4601
11,5280	0,0351	5,4601
11,7207	0,0351	5,4601
11,9358	0,0354	5,4246
12,1189	0,0350	5,4955
12,3212	0,0350	5,4601
12,5074	0,0354	5,4601
12,7033	0,0348	5,4955
12,9184	0,0348	5,5310
13,1015	0,0348	5,5310
13,3006	0,0350	5,4955
13,4996	0,0350	5,4601
13,6891	0,0350	5,5310
13,9043	0,0351	5,5310
14,0777	0,0351	5,4601
14,2992	0,0348	5,4601
14,4694	0,0348	5,5310
14,6814	0,0350	5,4955
14,8580	0,0348	5,4601
15,0763	0,0350	5,4601
15,2754	0,0348	5,5310
15,4617	0,0354	5,5310
15,6511	0,0351	5,4955
15,8598	0,0353	5,4601
16,0332	0,0354	5,4601
16,2484	0,0354	5,5310
16,4443	0,0350	5,4601
16,6466	0,0351	5,4601
16,8296	0,0351	5,4955
17,0126	0,0347	5,5310
17,2214	0,0351	5,5310
17,4301	0,0350	5,4955
17,6228	0,0353	5,4955
17,8122	0,0354	5,4955
18,0145	0,0353	5,4955
18,2072	0,0350	5,4601
18,3613	0,0347	5,4955
18,6022	0,0353	5,4955
18,7884	0,0351	5,4955
18,9843	0,0347	5,4601
19,1962	0,0353	5,4955
19,3728	0,0348	5,5310
19,5623	0,0348	5,5310
19,7678	0,0353	5,4601
19,9637	0,0353	5,4955
20,1499	0,0354	5,5310
20,3587	0,0351	5,4601
20,5577	0,0353	5,4601
20,7311	0,0353	5,5664
20,9399	0,0353	5,5310
21,1229	0,0346	5,4955
21,3252	0,0353	5,4601
21,5147	0,0351	5,4955
21,7041	0,0348	5,4955
21,8968	0,0350	5,5310
22,1055	0,0351	5,4955
22,3014	0,0353	5,5310
22,4876	0,0350	5,4955
22,6771	0,0354	5,4955
22,8858	0,0350	5,4955
23,0464	0,0356	5,4955
23,2647	0,0350	5,4955
23,4638	0,0350	5,5310
23,6565	0,0348	5,4955
23,8588	0,0351	5,4955
24,0354	0,0348	5,4601
24,2217	0,0353	5,4955
24,4272	0,0350	5,4955
24,6263	0,0350	5,4955
24,8125	0,0348	5,5310
24,9955	0,0348	5,5310
25,1946	0,0348	5,4601
25,3616	0,0348	5,4955
25,5832	0,0347	5,4955
25,7694	0,0345	5,5310
25,9782	0,0345	5,4601
26,1676	0,0346	5,4601
26,3603	0,0345	5,5310
26,5273	0,0346	5,5664
26,7071	0,0347	5,4955
26,9158	0,0343	5,4601
27,1213	0,0343	5,4601
27,2851	0,0341	5,4955
27,4970	0,0346	5,4955
27,6801	0,0345	5,4955
27,8663	0,0345	5,4955
28,0461	0,0339	5,5310
28,2484	0,0339	5,4955
28,4411	0,0340	5,4601
28,6049	0,0340	5,4955
28,7911	0,0339	5,5664
29,0031	0,0332	5,5310
29,1765	0,0337	5,4601
29,3627	0,0339	5,4601
29,5393	0,0336	5,4955
29,7288	0,0337	5,5310
29,9054	0,0331	5,4955
30,0948	0,0339	5,4955
30,2907	0,0332	5,5310
30,4609	0,0329	5,5310
30,6472	0,0330	5,4955
30,8270	0,0329	5,4601
31,0004	0,0328	5,5310
31,1931	0,0331	5,5310
31,3536	0,0329	5,5310
31,5591	0,0325	5,4955
31,7454	0,0323	5,4955
31,9123	0,0325	5,4601
32,0633	0,0321	5,5310
32,2431	0,0321	5,5310
32,4486	0,0321	5,5310
32,6252	0,0319	5,4955
32,7858	0,0314	5,4955
32,9592	0,0312	5,4955
33,1390	0,0313	5,4955
33,3060	0,0313	5,4955
33,4826	0,0310	5,5310
33,6432	0,0308	5,5310
33,8133	0,0307	5,4955
33,9867	0,0304	5,4601
34,1569	0,0303	5,5310
34,3271	0,0307	5,5310
34,4909	0,0303	5,5310
34,6547	0,0302	5,4601
34,8249	0,0298	5,5310
34,9854	0,0299	5,5310
35,1395	0,0298	5,5310
35,3130	0,0293	5,4601
35,4639	0,0292	5,4955
35,6212	0,0289	5,5310
35,7914	0,0285	5,4955
35,9359	0,0287	5,4601
36,0900	0,0280	5,4601
36,2570	0,0282	5,4955
36,4080	0,0276	5,5664
36,5557	0,0272	5,4955
36,7194	0,0271	5,4601
36,8671	0,0272	5,4955
36,9988	0,0265	5,5664
37,1433	0,0265	5,4955
37,2942	0,0267	5,4955
37,4355	0,0261	5,5310
37,5961	0,0255	5,5664
37,7277	0,0249	5,5310
37,8626	0,0255	5,4601
37,9910	0,0254	5,5310
38,1484	0,0245	5,5310
38,2800	0,0243	5,4955
38,4021	0,0240	5,5310
38,5369	0,0245	5,5664
38,6686	0,0234	5,5664
38,7906	0,0229	5,5310
38,9191	0,0226	5,4601
39,0604	0,0222	5,5310
39,1760	0,0218	5,4955
39,2851	0,0216	5,4955
39,4072	0,0218	5,4955
39,5260	0,0211	5,4955
39,6351	0,0206	5,5310
39,7604	0,0202	5,4955
39,8567	0,0197	5,4955
39,9691	0,0194	5,4955
40,0622	0,0195	5,5664
40,1714	0,0190	5,5664
40,2870	0,0184	5,5310
40,3930	0,0182	5,5310
40,4957	0,0174	5,4955
40,5664	0,0174	5,4601
40,6659	0,0175	5,5310
40,7558	0,0163	5,5664
40,8554	0,0157	5,5310
40,9485	0,0153	5,4955
41,0159	0,0153	5,4955
41,1091	0,0146	5,5664
41,1765	0,0140	5,5310
41,2504	0,0139	5,4955
41,3467	0,0135	5,4955
41,4141	0,0132	5,5310
41,4944	0,0126	5,5310
41,5650	0,0121	5,4955
41,6228	0,0115	5,4955
41,6935	0,0119	5,4955
41,7577	0,0110	5,5310
41,8123	0,0110	5,5310
41,8797	0,0101	5,5310
41,9311	0,0096	5,4955
41,9953	0,0098	5,5310
42,0339	0,0096	5,4955
42,1045	0,0085	5,5310
42,1463	0,0090	5,5310

15.12.2015	09:05:30
V	I	G
[V]	[A]	[W/m²]
0,3436	0,0540	8,6510
0,6551	0,0540	8,6510
0,9569	0,0540	8,6865
1,2716	0,0542	8,6156
1,5831	0,0538	8,7219
1,8978	0,0537	8,6510
2,2125	0,0540	8,6156
2,5015	0,0541	8,6156
2,8162	0,0537	8,6510
3,1148	0,0540	8,6156
3,4134	0,0540	8,6510
3,7410	0,0540	8,6865
4,0396	0,0535	8,6156
4,3479	0,0542	8,5446
4,6433	0,0540	8,6510
4,9548	0,0540	8,6510
5,2566	0,0540	8,6510
5,5328	0,0542	8,6156
5,8603	0,0535	8,6510
6,1558	0,0541	8,6510
6,4865	0,0541	8,6510
6,7691	0,0542	8,6156
7,0581	0,0541	8,6510
7,3696	0,0541	8,7219
7,6457	0,0535	8,6865
7,9701	0,0540	8,6510
8,2783	0,0540	8,6865
8,5705	0,0540	8,6510
8,8788	0,0537	8,6510
9,1710	0,0537	8,6510
9,4665	0,0534	8,6865
9,7619	0,0537	8,6156
10,0637	0,0541	8,6156
10,3688	0,0537	8,6510
10,6771	0,0537	8,6865
10,9661	0,0537	8,6156
11,2679	0,0538	8,7219
11,5441	0,0541	8,6510
11,8652	0,0538	8,6510
12,1445	0,0538	8,6865
12,4528	0,0537	8,7219
12,7515	0,0532	8,6156
13,0565	0,0531	8,6865
13,3584	0,0534	8,6865
13,6474	0,0537	8,6865
13,9299	0,0538	8,6510
14,2318	0,0537	8,6865
14,5336	0,0532	8,6510
14,8387	0,0538	8,6865
15,1405	0,0535	8,6510
15,4392	0,0535	8,6865
15,7250	0,0540	8,6156
16,0043	0,0534	8,7219
16,2998	0,0538	8,6510
16,6048	0,0537	8,6865
16,9003	0,0531	8,6510
17,1957	0,0535	8,6865
17,4911	0,0534	8,6510
17,8026	0,0534	8,6510
18,0787	0,0535	8,6865
18,3742	0,0534	8,6865
18,6760	0,0535	8,6865
18,9682	0,0535	8,6510
19,2733	0,0535	8,6865
19,5623	0,0534	8,7219
19,8577	0,0532	8,6510
20,1339	0,0529	8,7219
20,4165	0,0532	8,6510
20,7311	0,0532	8,6865
21,0362	0,0531	8,6510
21,3220	0,0535	8,6865
21,6142	0,0532	8,6865
21,9000	0,0531	8,6865
22,1890	0,0531	8,6510
22,4652	0,0540	8,7219
22,7734	0,0532	8,6865
23,0689	0,0532	8,6510
23,3675	0,0531	8,6510
23,6501	0,0530	8,7219
23,9648	0,0534	8,7219
24,2441	0,0529	8,6510
24,5235	0,0535	8,6510
24,8382	0,0531	8,6865
25,1272	0,0537	8,6865
25,4258	0,0531	8,6865
25,7116	0,0530	8,6865
25,9974	0,0530	8,6865
26,2800	0,0534	8,6510
26,5690	0,0532	8,7219
26,8644	0,0531	8,6510
27,1502	0,0527	8,6865
27,4360	0,0529	8,6865
27,7347	0,0530	8,6865
28,0237	0,0527	8,6865
28,3127	0,0524	8,6510
28,5888	0,0524	8,6510
28,8810	0,0523	8,7219
29,1636	0,0523	8,6865
29,4462	0,0515	8,6865
29,7320	0,0519	8,6510
30,0274	0,0515	8,7219
30,3068	0,0515	8,6865
30,5765	0,0515	8,6865
30,8430	0,0516	8,6865
31,1577	0,0507	8,7574
31,4243	0,0510	8,6865
31,6940	0,0512	8,6865
31,9830	0,0505	8,6510
32,2495	0,0503	8,7219
32,5160	0,0505	8,6865
32,7954	0,0497	8,6510
33,0780	0,0502	8,6156
33,3574	0,0493	8,6865
33,6207	0,0497	8,6510
33,8904	0,0493	8,6865
34,1537	0,0488	8,6865
34,4235	0,0488	8,6865
34,6675	0,0486	8,6510
34,9469	0,0483	8,7219
35,2038	0,0480	8,6510
35,4671	0,0475	8,7219
35,7272	0,0473	8,6510
35,9744	0,0466	8,6865
36,2153	0,0466	8,6865
36,4625	0,0464	8,7219
36,7259	0,0456	8,6510
36,9795	0,0455	8,6510
37,2364	0,0446	8,7219
37,4644	0,0442	8,7219
37,7213	0,0446	8,6156
37,9397	0,0437	8,7219
38,1677	0,0432	8,6865
38,4117	0,0424	8,6865
38,6461	0,0417	8,6865
38,8613	0,0412	8,7219
39,0796	0,0408	8,6865
39,2948	0,0402	8,6865
39,5035	0,0399	8,7219
39,7026	0,0386	8,7219
39,9338	0,0378	8,6510
40,1265	0,0373	8,7219
40,3352	0,0367	8,6865
40,5375	0,0356	8,6865
40,7205	0,0350	8,7219
40,8939	0,0339	8,6865
41,0705	0,0337	8,7219
41,2664	0,0323	8,6865
41,4366	0,0313	8,7219
41,6036	0,0303	8,7219
41,7738	0,0292	8,6156
41,9279	0,0282	8,6865
42,0660	0,0272	8,7219
42,2169	0,0259	8,7219
42,3486	0,0249	8,7219
42,4963	0,0239	8,6865
42,6247	0,0229	8,7219
42,7467	0,0224	8,6865
42,8688	0,0212	8,6510
42,9780	0,0204	8,6865
43,0775	0,0189	8,6510
43,1674	0,0183	8,7219
43,2702	0,0169	8,6865
43,3697	0,0161	8,6865
43,4468	0,0155	8,6510
43,5335	0,0147	8,7219
43,6041	0,0132	8,7219
43,6812	0,0124	8,6865
43,7326	0,0118	8,6510
43,8096	0,0107	8,6865
43,8771	0,0101	8,6865
43,9188	0,0098	8,7219
43,9702	0,0092	8,6865
44,0248	0,0083	8,6865
44,0665	0,0080	8,6865
44,0954	0,0066	8,7219

15.12.2015	09:10:30
V	I	G
[V]	[A]	[W/m²]
0,3982	0,0640	10,5656
0,7707	0,0635	10,5301
1,1175	0,0642	10,5656
1,4996	0,0638	10,5301
1,8560	0,0642	10,5301
2,2189	0,0635	10,5301
2,5914	0,0635	10,6010
2,9093	0,0639	10,4947
3,2850	0,0644	10,5301
3,6703	0,0642	10,5656
4,0332	0,0638	10,5656
4,3800	0,0640	10,5656
4,7396	0,0635	10,5656
5,0672	0,0643	10,4947
5,4654	0,0633	10,5656
5,8057	0,0639	10,5656
6,1782	0,0638	10,4947
6,5250	0,0634	10,5301
6,8815	0,0638	10,6365
7,1962	0,0639	10,5301
7,6104	0,0639	10,5301
7,9604	0,0638	10,6010
8,3265	0,0634	10,5656
8,6444	0,0638	10,5301
9,0008	0,0635	10,5656
9,3573	0,0640	10,5656
9,7233	0,0634	10,5656
10,0894	0,0638	10,5656
10,4362	0,0635	10,5656
10,7702	0,0642	10,5301
11,0817	0,0635	10,6010
11,4831	0,0634	10,5656
11,8234	0,0635	10,5656
12,1863	0,0634	10,5656
12,5427	0,0634	10,5656
12,9024	0,0633	10,5656
13,1978	0,0630	10,5656
13,5992	0,0640	10,5656
13,9364	0,0634	10,6010
14,2960	0,0633	10,5301
14,6364	0,0633	10,6010
14,9800	0,0634	10,5656
15,3396	0,0639	10,5656
15,6800	0,0633	10,6010
16,0557	0,0633	10,5656
16,3865	0,0632	10,4947
16,7493	0,0632	10,6365
17,0576	0,0635	10,5301
17,4494	0,0632	10,5301
17,7801	0,0632	10,5301
18,1333	0,0632	10,5301
18,4737	0,0632	10,5301
18,8237	0,0632	10,5656
19,1513	0,0633	10,5656
19,5462	0,0632	10,5301
19,8577	0,0635	10,6010
20,2206	0,0628	10,5656
20,5577	0,0628	10,5301
20,8981	0,0630	10,5656
21,2578	0,0632	10,5656
21,5982	0,0633	10,6010
21,9514	0,0630	10,5656
22,2950	0,0630	10,6010
22,6354	0,0628	10,5656
22,9629	0,0629	10,5656
23,3386	0,0634	10,5656
23,6790	0,0630	10,5656
24,0290	0,0629	10,5301
24,3565	0,0629	10,5656
24,7194	0,0630	10,6010
25,0309	0,0628	10,6010
25,4194	0,0632	10,5301
25,7470	0,0630	10,6719
26,1002	0,0635	10,5656
26,4309	0,0628	10,5301
26,7649	0,0628	10,6365
27,1245	0,0630	10,6010
27,4617	0,0623	10,5301
27,8117	0,0624	10,6010
28,1585	0,0624	10,5656
28,4828	0,0628	10,5301
28,7975	0,0628	10,6010
29,1604	0,0622	10,6010
29,5072	0,0617	10,5301
29,8315	0,0621	10,6010
30,1880	0,0616	10,5301
30,5059	0,0621	10,6010
30,8077	0,0611	10,6010
31,1802	0,0612	10,6365
31,5110	0,0612	10,6010
31,8449	0,0606	10,5656
32,1628	0,0606	10,6365
32,4615	0,0604	10,6365
32,8211	0,0602	10,5301
33,1519	0,0594	10,5656
33,4762	0,0594	10,6010
33,8037	0,0591	10,5301
34,1056	0,0589	10,5656
34,4138	0,0586	10,5656
34,7510	0,0580	10,5656
35,0593	0,0579	10,5656
35,3836	0,0578	10,5656
35,6854	0,0573	10,6365
35,9841	0,0569	10,6010
36,2956	0,0564	10,5656
36,6103	0,0557	10,5656
36,9153	0,0557	10,5656
37,2139	0,0547	10,6010
37,4869	0,0542	10,6010
37,7598	0,0542	10,5656
38,0745	0,0531	10,5656
38,3635	0,0524	10,6010
38,6236	0,0514	10,5301
38,9126	0,0512	10,5301
39,1888	0,0502	10,6010
39,4328	0,0497	10,5301
39,7251	0,0482	10,5301
39,9787	0,0478	10,5656
40,2453	0,0469	10,6010
40,4893	0,0454	10,5656
40,7301	0,0449	10,6010
40,9614	0,0440	10,5656
41,1990	0,0423	10,6010
41,4109	0,0417	10,5656
41,6453	0,0401	10,5301
41,8541	0,0386	10,5656
42,0499	0,0377	10,5656
42,2619	0,0358	10,5656
42,4545	0,0345	10,6010
42,6151	0,0325	10,6010
42,7981	0,0316	10,5656
42,9362	0,0303	10,6010
43,1032	0,0283	10,6010
43,2894	0,0272	10,5656
43,4115	0,0258	10,6010
43,5527	0,0240	10,5656
43,6748	0,0228	10,5301
43,7839	0,0213	10,6010
43,9028	0,0193	10,6010
44,0055	0,0185	10,5656
44,1083	0,0169	10,6365
44,1918	0,0158	10,5656
44,2785	0,0147	10,6010
44,3266	0,0139	10,5656
44,4165	0,0125	10,5656
44,4776	0,0117	10,5656
44,5450	0,0105	10,6010
44,5996	0,0097	10,5656
44,6510	0,0087	10,6365
44,6863	0,0080	10,5656
44,7409	0,0071	10,5656
44,7762	0,0064	10,5656

15.12.2015	09:15:30
V	I	G
[V]	[A]	[W/m²]
0,4849	0,0799	13,2602
0,9473	0,0799	13,0474
1,3968	0,0794	13,2956
1,8560	0,0796	13,0474
2,2703	0,0800	13,1183
2,7487	0,0800	13,1893
3,1855	0,0796	13,1183
3,6318	0,0803	13,0829
4,0846	0,0794	13,2247
4,5052	0,0795	13,0829
4,9741	0,0800	13,2247
5,4044	0,0795	13,0829
5,8668	0,0799	13,2247
6,3035	0,0797	13,1183
6,7370	0,0794	13,1183
7,1930	0,0799	13,1893
7,6361	0,0794	13,2247
8,0600	0,0799	13,0829
8,4838	0,0794	13,2602
8,9527	0,0790	13,0829
9,3733	0,0788	13,1893
9,8357	0,0794	13,0829
10,2596	0,0789	13,1893
10,7156	0,0791	13,1893
11,0913	0,0788	13,2247
11,5698	0,0794	13,1183
12,0193	0,0788	13,2247
12,4175	0,0795	13,1183
12,8895	0,0789	13,2247
13,3423	0,0791	13,1183
13,7533	0,0794	13,2602
14,1997	0,0789	13,1893
14,6332	0,0791	13,2247
15,0763	0,0795	13,1183
15,4938	0,0790	13,2602
15,9337	0,0791	13,1183
16,3608	0,0789	13,2247
16,7622	0,0794	13,1183
17,2342	0,0790	13,2247
17,6709	0,0785	13,1893
18,0852	0,0786	13,2247
18,5155	0,0790	13,1183
18,9714	0,0785	13,2602
19,3793	0,0791	13,1183
19,8417	0,0789	13,2247
20,2495	0,0790	13,1893
20,6830	0,0789	13,2602
21,1068	0,0795	13,1893
21,5564	0,0788	13,2247
21,9931	0,0790	13,1183
22,4138	0,0788	13,2602
22,8441	0,0786	13,0829
23,2744	0,0785	13,2247
23,6886	0,0788	13,2247
24,1414	0,0791	13,2247
24,5685	0,0788	13,2247
24,9923	0,0785	13,2247
25,4034	0,0785	13,1183
25,8401	0,0786	13,2602
26,2864	0,0789	13,1893
26,7007	0,0788	13,2247
27,1342	0,0786	13,1183
27,5484	0,0789	13,1893
27,9755	0,0785	13,2247
28,4218	0,0783	13,2602
28,8393	0,0783	13,2247
29,2278	0,0779	13,2247
29,6485	0,0778	13,1893
30,0981	0,0776	13,2602
30,5316	0,0773	13,2247
30,9265	0,0773	13,2247
31,3600	0,0773	13,1893
31,7614	0,0767	13,2602
32,1853	0,0767	13,2247
32,5931	0,0761	13,2602
33,0138	0,0761	13,1183
33,4248	0,0754	13,2602
33,8069	0,0749	13,2247
34,2308	0,0743	13,2247
34,6226	0,0741	13,2247
35,0239	0,0736	13,2247
35,4318	0,0732	13,1183
35,8267	0,0731	13,2602
36,1960	0,0724	13,2247
36,6006	0,0714	13,2247
36,9892	0,0705	13,2247
37,3681	0,0705	13,2602
37,7342	0,0704	13,1183
38,1131	0,0689	13,2956
38,4952	0,0680	13,1893
38,8292	0,0675	13,2247
39,2113	0,0657	13,1893
39,5677	0,0646	13,2956
39,8888	0,0638	13,1893
40,2485	0,0623	13,2247
40,5664	0,0612	13,1893
40,8875	0,0599	13,2247
41,2215	0,0585	13,1893
41,5169	0,0564	13,2247
41,8091	0,0547	13,1893
42,0756	0,0532	13,3311
42,3775	0,0510	13,1183
42,6600	0,0488	13,2602
42,8880	0,0460	13,1893
43,1385	0,0440	13,1893
43,3826	0,0411	13,2247
43,5656	0,0396	13,2247
43,7839	0,0368	13,1893
43,9862	0,0339	13,3311
44,1500	0,0326	13,2247
44,3074	0,0299	13,2247
44,4647	0,0276	13,1893
44,6124	0,0250	13,2602
44,7184	0,0234	13,1183
44,8533	0,0209	13,2602
44,9432	0,0191	13,1893
45,0395	0,0171	13,2247
45,1326	0,0156	13,2247
45,2097	0,0137	13,2247
45,2771	0,0120	13,1893
45,3317	0,0108	13,2956
45,3959	0,0093	13,0829
45,4441	0,0088	13,2247
45,4602	0,0081	13,2247
45,5308	0,0069	13,1893
45,5597	0,0060	13,2247

15.12.2015	09:20:30
V	I	G
[V]	[A]	[W/m²]
0,6776	0,1130	18,5784
1,2941	0,1133	18,4366
1,9363	0,1129	18,5784
2,5529	0,1135	18,4011
3,1951	0,1125	18,5075
3,8245	0,1127	18,4366
4,4442	0,1131	18,4720
5,0929	0,1126	18,4720
5,7030	0,1130	18,5075
6,3356	0,1129	18,4366
6,9714	0,1125	18,5075
7,6072	0,1124	18,4366
8,2045	0,1129	18,5075
8,8306	0,1124	18,4366
9,4311	0,1120	18,5784
10,0766	0,1124	18,4720
10,6899	0,1120	18,5784
11,2840	0,1117	18,4366
11,9101	0,1119	18,5784
12,5395	0,1121	18,4720
13,1400	0,1116	18,5784
13,7630	0,1124	18,4720
14,3699	0,1120	18,5075
14,9960	0,1120	18,5075
15,5869	0,1121	18,6139
16,1874	0,1119	18,4366
16,8200	0,1125	18,6139
17,4076	0,1120	18,4011
18,0434	0,1119	18,6139
18,6246	0,1119	18,4366
19,2701	0,1115	18,5075
19,8481	0,1115	18,5075
20,4646	0,1113	18,5075
21,0747	0,1116	18,4720
21,6816	0,1113	18,4720
22,2853	0,1111	18,4720
22,8698	0,1113	18,5075
23,4992	0,1113	18,4720
24,0932	0,1113	18,5784
24,7130	0,1109	18,5075
25,2974	0,1119	18,5784
25,9107	0,1116	18,4720
26,5112	0,1117	18,5784
27,1149	0,1116	18,4366
27,7122	0,1110	18,5784
28,3062	0,1110	18,4366
28,9324	0,1111	18,6139
29,5297	0,1111	18,4720
30,1494	0,1108	18,5075
30,7403	0,1103	18,5075
31,3343	0,1102	18,5075
31,8931	0,1097	18,4366
32,4968	0,1097	18,5075
33,0844	0,1089	18,4366
33,6753	0,1084	18,5075
34,2693	0,1079	18,4720
34,8473	0,1073	18,4720
35,4253	0,1061	18,5075
35,9777	0,1052	18,6139
36,5428	0,1049	18,4720
37,1080	0,1037	18,5075
37,6764	0,1025	18,4720
38,2158	0,1010	18,5784
38,7521	0,0997	18,4720
39,2787	0,0984	18,5784
39,8182	0,0965	18,4720
40,3191	0,0947	18,5075
40,8201	0,0924	18,4720
41,3178	0,0900	18,5075
41,7802	0,0871	18,5075
42,2490	0,0837	18,5784
42,6825	0,0803	18,4720
43,0871	0,0759	18,5784
43,4757	0,0722	18,4720
43,8225	0,0671	18,5784
44,1468	0,0626	18,5075
44,4840	0,0574	18,6139
44,7730	0,0523	18,4366
45,0620	0,0473	18,6139
45,2739	0,0427	18,5075
45,5019	0,0374	18,5075
45,6721	0,0328	18,4720
45,8327	0,0283	18,5784
45,9739	0,0248	18,5075
46,0831	0,0210	18,5784
46,1763	0,0180	18,5075
46,2469	0,0147	18,5784
46,3464	0,0134	18,4720
46,4010	0,0105	18,5075
46,4556	0,0092	18,5075
46,4685	0,0074	18,5075
46,5263	0,0069	18,5784
46,5295	0,0055	18,5075
46,5648	0,0045	18,5784

15.12.2015	09:25:30
V	I	G
[V]	[A]	[W/m²]
0,6165	0,1052	17,2666
1,2042	0,1051	17,4084
1,8271	0,1048	17,3020
2,3987	0,1049	17,3375
2,9735	0,1048	17,3020
3,6093	0,1049	17,3729
4,1456	0,1049	17,2666
4,7300	0,1049	17,4438
5,3562	0,1051	17,3020
5,9053	0,1051	17,3729
6,4512	0,1052	17,3729
7,0613	0,1051	17,3375
7,6136	0,1051	17,3020
8,2398	0,1052	17,3729
8,7761	0,1049	17,3020
9,3605	0,1044	17,4084
9,9867	0,1044	17,3375
10,5101	0,1044	17,4438
11,1234	0,1049	17,2666
11,6693	0,1038	17,5148
12,2569	0,1041	17,2311
12,7707	0,1043	17,5148
13,3744	0,1043	17,2666
13,9428	0,1048	17,4084
14,5144	0,1046	17,3729
15,0827	0,1043	17,3375
15,6062	0,1045	17,2666
16,2580	0,1039	17,3729
16,8071	0,1044	17,4084
17,3562	0,1048	17,3729
17,9599	0,1044	17,3375
18,4930	0,1043	17,4084
19,0806	0,1045	17,3020
19,6618	0,1045	17,3729
20,2045	0,1041	17,3729
20,7536	0,1044	17,3729
21,3477	0,1046	17,3729
21,9514	0,1045	17,3729
22,4909	0,1046	17,3020
23,0689	0,1041	17,4438
23,5955	0,1041	17,2666
24,1895	0,1041	17,4438
24,7579	0,1041	17,2311
25,3038	0,1039	17,4438
25,9043	0,1041	17,3020
26,4277	0,1041	17,4084
27,0346	0,1044	17,3020
27,5484	0,1041	17,3729
28,0943	0,1041	17,4084
28,6819	0,1043	17,4084
29,2503	0,1037	17,3020
29,8251	0,1030	17,4438
30,3582	0,1028	17,3020
30,9297	0,1027	17,4084
31,5045	0,1025	17,3375
32,0408	0,1019	17,5148
32,6060	0,1017	17,2666
33,0908	0,1014	17,5148
33,7106	0,1007	17,3020
34,1987	0,1005	17,4438
34,7382	0,1001	17,3729
35,2680	0,0990	17,4084
35,8139	0,0981	17,3729
36,3694	0,0974	17,4084
36,8896	0,0964	17,3375
37,3552	0,0962	17,4084
37,8658	0,0949	17,3729
38,3989	0,0929	17,4084
38,9159	0,0920	17,3020
39,3815	0,0904	17,3729
39,8503	0,0888	17,3375
40,2806	0,0872	17,4084
40,7719	0,0846	17,3020
41,2215	0,0824	17,4438
41,6839	0,0795	17,4084
42,1077	0,0773	17,3375
42,4802	0,0738	17,3729
42,8302	0,0705	17,4438
43,2220	0,0667	17,3375
43,5752	0,0623	17,4084
43,9028	0,0580	17,3020
44,1436	0,0535	17,4438
44,4262	0,0493	17,3729
44,7088	0,0448	17,4084
44,9464	0,0405	17,3020
45,1358	0,0363	17,3729
45,3092	0,0323	17,3729
45,4602	0,0286	17,3729
45,5950	0,0248	17,3729
45,6978	0,0218	17,3375
45,8102	0,0189	17,3375
45,8808	0,0161	17,4084
45,9675	0,0140	17,3729
46,0446	0,0119	17,5148
46,0928	0,0102	17,3375
46,1634	0,0085	17,5502
46,1891	0,0072	17,3375
46,2244	0,0069	17,3729
46,2405	0,0054	17,3729
46,2597	0,0043	17,4084

15.12.2015	09:55:30
V	I	G
[V]	[A]	[W/m²]
1,1785	0,2028	34,0013
2,3217	0,2028	33,8950
3,4616	0,2025	33,9659
4,5823	0,2029	33,8950
5,6677	0,2033	33,9659
6,8173	0,2034	33,9659
7,8673	0,2034	33,9304
9,0329	0,2029	33,8950
10,1601	0,2024	33,9304
11,2775	0,2026	33,9304
12,3854	0,2025	33,9659
13,4772	0,2030	33,8950
14,5850	0,2029	34,0013
15,7057	0,2029	33,8950
16,7590	0,2021	34,0013
17,8604	0,2025	33,8950
18,9971	0,2026	34,0013
20,0889	0,2017	33,9304
21,1839	0,2017	34,0013
22,2436	0,2018	33,9659
23,3675	0,2021	34,0368
24,4079	0,2014	33,8950
25,5447	0,2012	34,0013
26,6461	0,2010	33,8950
27,7282	0,2014	33,9659
28,8040	0,2018	33,9659
29,8893	0,2012	33,9304
30,9875	0,2010	33,9304
32,0376	0,2007	34,0013
33,1165	0,1996	33,9304
34,1248	0,1987	34,0013
35,2327	0,1975	33,9304
36,2923	0,1965	34,0013
37,3617	0,1938	33,9659
38,3539	0,1914	34,0013
39,4168	0,1883	33,9659
40,3962	0,1841	33,8950
41,3499	0,1782	34,0013
42,2940	0,1709	33,9304
43,1642	0,1619	33,9304
43,9959	0,1504	34,0368
44,7312	0,1363	33,9304
45,4152	0,1189	34,0722
45,9868	0,1016	33,9304
46,4685	0,0839	34,0013
46,8345	0,0675	33,9304
47,1556	0,0531	33,9304
47,3740	0,0405	34,0013
47,5346	0,0303	33,9304
47,6662	0,0228	33,9659
47,7561	0,0167	34,0013
47,7947	0,0125	33,9304
47,8396	0,0098	34,0368
47,8332	0,0082	33,9304
47,9103	0,0055	33,9659
47,9392	0,0047	33,9659
47,9488	0,0033	33,9659

15.12.2015	10:00:30
V	I	G
[V]	[A]	[W/m²]
1,4450	0,2454	40,9150
2,7841	0,2450	40,8087
4,1584	0,2454	40,8441
5,5264	0,2452	40,8087
6,8526	0,2454	40,9150
8,2141	0,2448	40,7732
9,5499	0,2447	40,8441
10,8858	0,2443	40,8087
12,2473	0,2443	40,9505
13,5542	0,2446	40,7732
14,8997	0,2448	40,8441
16,2355	0,2447	40,7732
17,5617	0,2442	40,9150
18,8912	0,2446	40,7732
20,1949	0,2439	40,9150
21,5179	0,2434	40,8087
22,8441	0,2434	40,9150
24,1639	0,2434	40,8087
25,4933	0,2429	40,8441
26,7906	0,2431	40,8087
28,0815	0,2439	40,9150
29,4237	0,2434	40,7732
30,7499	0,2432	40,9505
32,0472	0,2430	40,8087
33,3509	0,2419	40,9150
34,6547	0,2407	40,7732
35,9359	0,2391	40,9150
37,1883	0,2369	40,8087
38,4631	0,2333	40,9150
39,6705	0,2293	40,8087
40,8939	0,2229	40,9505
42,0531	0,2143	40,7732
43,1706	0,2033	40,9505
44,2078	0,1868	40,8087
45,1326	0,1666	40,8087
45,9354	0,1422	40,9150
46,5969	0,1157	40,8087
47,1460	0,0905	40,8087
47,5281	0,0680	40,9150
47,8171	0,0496	40,8087
47,9970	0,0353	40,9505
48,1350	0,0247	40,9150
48,2346	0,0177	40,8441
48,2924	0,0128	40,7732
48,3502	0,0090	40,9150
48,3373	0,0065	40,9150
48,3791	0,0052	40,8087
48,3887	0,0040	40,8441
48,4144	0,0032	40,8441

15.12.2015	10:05:30
V	I	G
[V]	[A]	[W/m²]
1,5831	0,2677	44,3187
3,0731	0,2670	44,4960
4,5438	0,2673	44,3896
6,0337	0,2677	44,4251
7,4980	0,2670	44,4251
8,9591	0,2669	44,4251
10,4105	0,2677	44,3187
11,8716	0,2670	44,3187
13,3487	0,2673	44,4251
14,7937	0,2667	44,4251
16,2612	0,2670	44,3187
17,6998	0,2670	44,4605
19,1352	0,2667	44,3896
20,5674	0,2667	44,4251
22,0445	0,2659	44,3896
23,4863	0,2658	44,4251
24,9185	0,2661	44,3896
26,3474	0,2659	44,3187
27,7860	0,2663	44,4251
29,2246	0,2658	44,3896
30,6600	0,2654	44,4251
32,0954	0,2654	44,3896
33,5147	0,2642	44,4251
34,9051	0,2626	44,4251
36,3245	0,2609	44,3896
37,7181	0,2577	44,3896
39,0860	0,2538	44,3896
40,4155	0,2479	44,4251
41,6967	0,2396	44,4251
42,9298	0,2272	44,4251
44,1179	0,2098	44,3187
45,1712	0,1862	44,4605
46,0671	0,1580	44,4251
46,8121	0,1271	44,3896
47,3644	0,0962	44,4605
47,7722	0,0699	44,3896
48,0612	0,0487	44,4251
48,2699	0,0336	44,4605
48,3887	0,0226	44,4251
48,4594	0,0163	44,4251
48,5204	0,0109	44,3187
48,5493	0,0081	44,4605
48,5621	0,0056	44,3187
48,5942	0,0042	44,3896
48,6039	0,0034	44,3896
48,5975	0,0028	44,3896

15.12.2015	10:10:30
V	I	G
[V]	[A]	[W/m²]
1,8785	0,3177	52,2961
3,6543	0,3182	52,3315
5,4044	0,3178	52,3315
7,1544	0,3176	52,3315
8,8724	0,3178	52,3670
10,6353	0,3165	52,3670
12,3565	0,3167	52,2961
14,0937	0,3166	52,4025
15,8213	0,3166	52,3315
17,5393	0,3163	52,3315
19,2540	0,3165	52,4025
20,9656	0,3166	52,3315
22,6964	0,3166	52,3670
24,3822	0,3162	52,3315
26,1002	0,3162	52,3315
27,8181	0,3163	52,3315
29,5457	0,3163	52,3315
31,2220	0,3156	52,3670
32,9174	0,3149	52,3670
34,6161	0,3123	52,3670
36,2859	0,3101	52,3315
37,9236	0,3068	52,3670
39,5581	0,3016	52,3670
41,1572	0,2929	52,3670
42,6729	0,2797	52,3670
44,1083	0,2583	52,3315
45,3895	0,2266	52,4734
46,4653	0,1869	52,3670
47,3162	0,1427	52,3315
47,9327	0,1018	52,3670
48,3213	0,0680	52,4025
48,5814	0,0440	52,4025
48,7516	0,0275	52,4025
48,8511	0,0183	52,3315
48,9057	0,0117	52,3315
48,9346	0,0083	52,4025
48,9603	0,0060	52,3315
48,9635	0,0048	52,2961
48,9603	0,0036	52,2961
48,9796	0,0028	52,3670

15.12.2015	10:15:30
V	I	G
[V]	[A]	[W/m²]
2,0294	0,3533	58,0398
4,0236	0,3533	58,0398
6,0241	0,3530	58,1816
7,9540	0,3520	58,0398
9,8325	0,3514	58,0398
11,7785	0,3506	58,1107
13,6634	0,3513	58,2171
15,5323	0,3516	58,0398
17,5328	0,3519	58,1107
19,4210	0,3514	58,1107
21,3413	0,3512	58,0398
23,2744	0,3513	58,1107
25,1144	0,3511	58,1107
27,0732	0,3513	58,0398
28,9260	0,3507	58,1462
30,8398	0,3506	58,1107
32,6766	0,3496	58,1462
34,5904	0,3471	58,0398
36,4272	0,3449	58,2171
38,2768	0,3393	58,0398
40,0751	0,3333	58,1462
41,8508	0,3213	58,0043
43,4307	0,3010	58,1462
45,0010	0,2696	58,1816
46,2597	0,2236	58,1107
47,3162	0,1705	58,1107
48,0355	0,1185	58,1107
48,4851	0,0769	58,1462
48,8158	0,0472	58,1107
48,9282	0,0298	58,0398
49,0534	0,0180	58,1107
49,0406	0,0117	58,1107
49,1530	0,0075	58,0398
49,1401	0,0054	58,1107
49,1722	0,0047	58,0398
49,1787	0,0040	58,1462
49,1722	0,0036	58,0398

15.12.2015	10:20:30
V	I	G
[V]	[A]	[W/m²]
2,3570	0,4061	66,3363
4,6144	0,4056	66,3363
6,8751	0,4061	66,3363
9,1036	0,4052	66,2653
11,3032	0,4041	66,3008
13,5253	0,4043	66,3717
15,7346	0,4037	66,3363
17,9278	0,4037	66,3008
20,0729	0,4039	66,3363
22,3078	0,4028	66,3363
24,4786	0,4037	66,4781
26,6814	0,4034	66,3008
28,8618	0,4033	66,3363
31,0389	0,4025	66,3717
33,2000	0,4010	66,3363
35,3290	0,3989	66,3008
37,4516	0,3939	66,3008
39,5388	0,3872	66,3363
41,6228	0,3742	66,4426
43,5656	0,3493	66,3363
45,2611	0,3089	66,3363
46,7575	0,2477	66,3363
47,8332	0,1770	66,3008
48,5397	0,1131	66,3008
48,9603	0,0666	66,3363
49,1947	0,0384	66,3717
49,3264	0,0229	66,3717
49,3938	0,0136	66,3008
49,4388	0,0093	66,3363
49,4548	0,0066	66,3717
49,4195	0,0055	66,3363
49,4484	0,0043	66,3008
49,4420	0,0036	66,3363

15.12.2015	10:25:30
V	I	G
[V]	[A]	[W/m²]
2,4854	0,4239	69,1727
4,8392	0,4236	69,1372
7,1705	0,4236	69,2081
9,5050	0,4227	69,1727
11,7881	0,4215	69,2081
14,1033	0,4215	69,2081
16,4122	0,4212	69,1372
18,7113	0,4211	69,1727
20,9977	0,4210	69,1727
23,2840	0,4209	69,2081
25,5639	0,4202	69,1727
27,8374	0,4204	69,1727
30,1141	0,4202	69,1727
32,3715	0,4185	69,1727
34,6161	0,4172	69,1372
36,8704	0,4131	69,2436
39,0764	0,4063	69,2436
41,2150	0,3944	69,0663
43,2637	0,3713	69,1727
45,1198	0,3294	69,1372
46,6708	0,2662	69,1372
47,8557	0,1893	69,1727
48,6167	0,1189	69,1727
49,0406	0,0688	69,1727
49,2686	0,0390	69,1727
49,3874	0,0221	69,1372
49,4805	0,0136	69,1372
49,4934	0,0092	69,2081
49,5126	0,0066	69,1727
49,5030	0,0059	69,1727
49,5287	0,0042	69,1727
49,5287	0,0037	69,1727

15.12.2015	10:30:15
V	I	G
[V]	[A]	[W/m²]
