
27.01.2016	12:20:17
V	I	G
[V]	[A]	[W/m²]
-0,5298	0,0696	33,1149
-0,0353	0,0694	32,8668
0,3918	0,0684	32,9377
1,1175	0,0687	32,9022
1,5638	0,0680	32,9377
2,0166	0,0684	32,9377
2,5336	0,0681	32,9731
2,9318	0,0678	32,9731
3,3878	0,0680	32,9731
3,7635	0,0677	32,9731
4,1905	0,0676	32,9377
4,6016	0,0678	32,9731
4,9741	0,0675	33,0086
5,3722	0,0671	32,9731
5,7351	0,0672	33,0086
6,1301	0,0671	32,9731
6,4929	0,0675	33,0086
6,8751	0,0661	32,9731
7,2090	0,0666	33,0086
7,6072	0,0667	33,0086
7,9476	0,0666	33,0086
8,3008	0,0661	32,8313
8,7215	0,0665	33,0086
9,0618	0,0657	32,9377
9,4376	0,0660	32,9731
9,7940	0,0654	32,9731
10,1697	0,0657	32,9731
10,5004	0,0659	32,9377
10,8440	0,0657	33,0086
11,2615	0,0654	32,9731
11,6276	0,0648	33,0086
11,9711	0,0644	32,9022
12,3436	0,0648	32,9377
12,6776	0,0650	32,9022
13,0372	0,0649	32,9377
13,3551	0,0642	32,9377
13,5703	0,0640	32,9377
13,4964	0,0640	32,8668
13,4515	0,0635	32,9731
14,0809	0,0638	32,9022
14,4534	0,0635	32,9377
14,8548	0,0634	32,9022
15,4424	0,0633	32,9377
15,9562	0,0628	32,8668
16,4314	0,0629	32,9377
16,7044	0,0624	32,8668
17,1122	0,0623	32,9377
17,4847	0,0623	32,9022
17,8379	0,0619	32,9377
18,2200	0,0621	33,0086
18,5668	0,0613	32,9377
18,8944	0,0610	32,8668
19,2155	0,0604	32,9022
19,5559	0,0606	33,0086
19,9251	0,0605	32,9377
20,2559	0,0605	32,9377
20,5481	0,0595	32,9022
20,8660	0,0595	32,9022
21,2192	0,0596	32,9731
21,5404	0,0585	32,9377
21,8486	0,0585	32,9377
22,2018	0,0592	33,0086
22,5069	0,0586	33,0086
22,8280	0,0586	32,9022
23,1748	0,0580	32,9731
23,4831	0,0575	32,9022
23,7849	0,0568	32,8668
24,0643	0,0569	32,9731
24,3854	0,0565	32,9377
24,6969	0,0561	32,9022
25,0052	0,0561	32,9377
25,3134	0,0552	33,0086
25,6506	0,0556	32,9022
25,9396	0,0550	32,9377
25,8979	0,0548	32,9377
25,8208	0,0548	33,0440
26,0135	0,0542	32,9022
26,4534	0,0534	32,9377
26,8195	0,0529	33,0086
27,2787	0,0530	32,9022
27,6255	0,0516	32,9731
28,0750	0,0523	32,9377
28,4315	0,0514	32,9022
28,7526	0,0514	33,0086
29,0705	0,0505	32,9377
29,3370	0,0500	32,9022
29,6292	0,0496	33,0086
29,9150	0,0491	32,9731
30,1591	0,0492	32,9377
30,4449	0,0478	33,0440
30,6793	0,0478	32,9022
30,9715	0,0477	33,1149
31,2187	0,0466	32,9022
31,4628	0,0460	33,0086
31,7325	0,0455	33,0086
31,9701	0,0458	32,9377
32,1821	0,0450	32,9022
32,4422	0,0443	33,0086
32,6798	0,0440	33,0086
32,9303	0,0427	32,9731
33,1808	0,0421	32,8668
33,4055	0,0413	32,9022
33,6207	0,0411	32,9377
33,8326	0,0406	32,9731
34,0734	0,0404	32,9022
34,2725	0,0400	32,9377
34,5166	0,0391	32,9731
34,7285	0,0385	32,9377
34,9244	0,0372	32,8668
35,1203	0,0369	33,1149
35,3354	0,0364	32,9377
35,3515	0,0364	33,0440
35,0015	0,0357	32,9731
35,1203	0,0345	32,9377
35,2937	0,0337	32,8668
35,7015	0,0335	32,9377
35,8524	0,0325	32,8668
36,2121	0,0318	32,9731
36,5557	0,0313	32,9731
36,8896	0,0307	32,9731
37,0213	0,0292	32,7604
37,2396	0,0291	33,0440
37,4355	0,0283	32,9377
37,5768	0,0276	33,0086
37,7309	0,0275	32,9731
37,8722	0,0264	32,9377
38,0199	0,0258	32,8313
38,1644	0,0250	33,0440
38,3186	0,0243	32,9731
38,4502	0,0236	32,9731
38,5723	0,0236	32,9022
38,6718	0,0224	33,0086
38,7810	0,0217	32,9731
38,8998	0,0209	33,1504
39,0347	0,0204	32,8313
39,1374	0,0195	33,0086
39,2627	0,0193	32,9022
39,3494	0,0188	32,9377
39,4489	0,0182	33,0086
39,5484	0,0177	33,0440
39,6769	0,0167	32,9731
39,7636	0,0162	32,9731
39,8342	0,0158	32,9022
39,9306	0,0153	33,0440
39,9948	0,0147	32,8668
40,1104	0,0146	33,0440
40,1746	0,0139	32,8313
40,2485	0,0135	33,1504
40,1714	0,0125	32,9022
39,8053	0,0120	33,0440
39,6544	0,0121	32,8313
39,9145	0,0117	33,0086
40,0012	0,0110	32,9377
40,1232	0,0108	32,9731
40,2292	0,0099	32,9731
40,6017	0,0096	33,0086
40,6852	0,0090	32,9022
40,7783	0,0093	33,0440
40,8425	0,0087	32,8313

27.01.2016	12:25:17
V	I	G
[V]	[A]	[W/m²]
0,3725	0,0640	31,4840
0,7707	0,0640	30,3140
1,1046	0,0640	31,5195
1,4611	0,0635	30,3140
1,8464	0,0639	31,5549
2,1996	0,0632	30,4204
2,5432	0,0642	31,5195
2,9318	0,0635	30,4204
3,2433	0,0633	31,4840
3,6382	0,0642	30,3140
3,9947	0,0634	31,6258
4,3286	0,0634	30,3140
4,6722	0,0630	31,5195
5,0608	0,0632	30,4558
5,3851	0,0628	31,5549
5,7704	0,0633	30,4204
6,0434	0,0629	31,5549
6,4480	0,0626	30,3495
6,7787	0,0632	31,5549
7,1512	0,0624	30,3140
7,5077	0,0626	31,6258
7,8416	0,0622	30,4204
8,1948	0,0626	31,5904
8,5288	0,0621	30,4558
8,8724	0,0623	31,4840
9,1999	0,0621	30,4558
9,5403	0,0619	31,5195
9,8743	0,0615	30,4913
10,2114	0,0615	31,5549
10,5968	0,0613	30,4913
10,9115	0,0615	31,6258
11,2518	0,0613	30,4204
11,5794	0,0611	31,6613
11,9198	0,0606	30,3495
12,2890	0,0605	31,6258
12,6198	0,0602	30,5267
12,9505	0,0606	31,5549
13,2973	0,0605	30,4913
13,6024	0,0605	31,5549
13,9588	0,0604	30,5267
14,2478	0,0601	31,5904
14,6171	0,0599	30,4913
14,9126	0,0594	31,6258
15,2048	0,0595	30,4204
15,5612	0,0594	31,5195
15,9080	0,0588	30,5267
16,2099	0,0586	31,6613
16,5856	0,0588	30,4913
16,8714	0,0584	31,5904
17,2342	0,0586	30,4558
17,5200	0,0586	31,6258
17,8379	0,0584	30,4204
18,1430	0,0591	31,6967
18,4737	0,0579	30,4558
18,8205	0,0579	31,6967
19,1288	0,0573	30,4558
19,4531	0,0570	31,6613
19,7485	0,0574	30,5267
20,0375	0,0568	31,6258
20,3972	0,0568	30,5622
20,6733	0,0562	31,6258
21,0266	0,0561	30,5267
21,3027	0,0559	31,6967
21,6399	0,0561	30,5267
21,9032	0,0557	31,6613
22,2179	0,0550	30,4558
22,5358	0,0551	31,6967
22,8248	0,0547	30,5622
23,1234	0,0546	31,6613
23,4414	0,0542	30,5267
23,7207	0,0532	31,6613
24,0226	0,0538	30,4558
24,2923	0,0534	31,7677
24,6006	0,0531	30,4913
24,8992	0,0531	31,7677
25,1786	0,0521	30,4913
25,4612	0,0519	31,6258
25,7662	0,0515	30,5976
26,0263	0,0515	31,6967
26,3057	0,0516	30,4558
26,5851	0,0515	31,6967
26,8066	0,0505	30,4558
27,1599	0,0505	31,7677
27,4424	0,0502	30,5622
27,6929	0,0500	31,6967
27,9819	0,0496	30,4913
28,2163	0,0488	31,7677
28,5085	0,0488	30,4913
28,7494	0,0483	31,7677
29,0512	0,0480	30,5622
29,2856	0,0475	31,8031
29,5457	0,0472	30,5267
29,8026	0,0469	31,8031
30,0370	0,0460	30,5267
30,2715	0,0458	31,6613
30,5508	0,0456	30,5976
30,7660	0,0443	31,7677
31,0486	0,0445	30,5622
31,2541	0,0435	31,6967
31,4724	0,0432	30,5622
31,7197	0,0432	31,7677
31,9380	0,0427	30,6686
32,1853	0,0420	31,7677
32,4069	0,0417	30,5976
32,5995	0,0408	31,6967
32,8564	0,0405	30,5976
33,0298	0,0396	31,8031
33,2964	0,0400	30,5976
33,4473	0,0394	31,8031
33,6817	0,0381	30,5976
33,8615	0,0378	31,6258
34,1280	0,0374	30,6686
34,2436	0,0372	31,7677
34,4941	0,0364	30,5976
34,6161	0,0356	31,8031
34,8634	0,0354	30,5976
35,0721	0,0350	31,8740
35,3130	0,0341	30,5622
35,4671	0,0331	31,8740
35,6854	0,0330	30,7395
35,8235	0,0325	31,8031
36,0387	0,0323	30,5976
36,2089	0,0314	31,7677
36,4208	0,0309	30,7040
36,5846	0,0308	31,8386
36,7098	0,0291	30,7749
36,8896	0,0283	31,8740
37,0534	0,0285	30,5622
37,1883	0,0276	31,7677
37,3617	0,0272	30,7395
37,4805	0,0258	31,8031
37,6442	0,0256	30,6686
37,7663	0,0248	31,8740
37,9172	0,0243	30,7749
38,0585	0,0244	31,7677
38,1901	0,0237	30,8104
38,3025	0,0231	31,7677
38,4470	0,0221	30,7749
38,5562	0,0218	31,9095
38,6782	0,0210	30,6686
38,7906	0,0209	31,8740
38,8870	0,0195	30,7040
38,9865	0,0195	31,8386
39,1021	0,0189	30,8104
39,2016	0,0180	31,8031
39,3012	0,0175	30,7040
39,4200	0,0169	31,9095
39,4939	0,0163	30,7040
39,5870	0,0162	31,9095
39,6801	0,0161	30,6686
39,7508	0,0146	31,8740
39,8599	0,0144	30,7040
39,9209	0,0137	31,8740
40,0205	0,0134	30,7749
40,0654	0,0126	31,8386
40,1714	0,0126	30,8104
40,2132	0,0124	31,9449
40,3095	0,0119	30,8104
40,3705	0,0117	31,9449
40,4315	0,0107	30,7040
40,4797	0,0107	31,8386
40,5471	0,0103	30,7749
40,6113	0,0098	31,9449
40,6499	0,0092	30,7749
40,7205	0,0090	32,0158
40,7623	0,0081	30,7749
40,8361	0,0082	31,9095

27.01.2016	12:30:18
V	I	G
[V]	[A]	[W/m²]
0,1991	0,0423	19,8193
0,4913	0,0427	20,4930
0,7354	0,0429	19,8193
0,9794	0,0422	20,3866
1,2459	0,0424	19,7839
1,4707	0,0427	20,3866
1,7019	0,0424	19,8548
1,9813	0,0424	20,4575
2,2189	0,0423	19,8548
2,4308	0,0413	20,3866
2,7006	0,0423	19,9257
2,8997	0,0420	20,4575
3,0988	0,0418	19,7484
3,3171	0,0424	20,3866
3,5290	0,0418	19,8193
3,8470	0,0417	20,3512
4,1167	0,0417	19,9257
4,3286	0,0420	20,4575
4,5470	0,0413	19,8193
4,7750	0,0417	20,4930
5,0319	0,0418	19,8548
5,2791	0,0421	20,4575
5,5039	0,0412	19,8548
5,7704	0,0418	20,4930
5,9888	0,0412	19,8548
6,2039	0,0417	20,4575
6,4383	0,0415	19,8193
6,6695	0,0415	20,4575
6,8686	0,0405	19,7484
7,0966	0,0411	20,4575
7,2443	0,0411	19,7839
7,6136	0,0413	20,5284
7,8127	0,0412	19,8548
8,0760	0,0406	20,3512
8,2848	0,0413	19,9257
8,5031	0,0406	20,3866
8,7600	0,0406	19,9257
9,0008	0,0404	20,4575
9,1967	0,0404	19,8193
9,4600	0,0406	20,5639
9,6463	0,0404	19,7484
9,8743	0,0402	20,5284
10,1087	0,0400	19,8193
10,3303	0,0399	20,3866
10,5197	0,0396	19,8548
10,7413	0,0402	20,4575
10,8537	0,0406	19,7484
11,1908	0,0400	20,4930
11,4317	0,0395	19,9257
11,6789	0,0400	20,4930
11,8941	0,0400	19,7484
12,1156	0,0394	20,3866
12,3565	0,0401	19,8548
12,5877	0,0396	20,5284
12,7643	0,0393	19,8193
12,9859	0,0388	20,4575
13,2267	0,0394	19,7839
13,4226	0,0390	20,3866
13,6345	0,0391	19,8548
13,9043	0,0388	20,4930
14,1130	0,0390	19,8548
14,2703	0,0386	20,4930
14,4534	0,0386	19,8193
14,5818	0,0390	20,4930
14,9479	0,0383	19,7484
15,1823	0,0385	20,4930
15,3493	0,0386	19,8193
15,6158	0,0383	20,4930
15,8053	0,0384	19,8193
16,0236	0,0380	20,4930
16,2580	0,0381	19,8193
16,4539	0,0380	20,3866
16,6883	0,0377	19,9257
16,9131	0,0375	20,3866
17,0865	0,0375	19,8193
17,2599	0,0375	20,4575
17,4815	0,0374	19,8193
17,6966	0,0375	20,3866
17,7769	0,0369	19,7484
18,0787	0,0372	20,5284
18,3613	0,0375	19,8548
18,5411	0,0364	20,4575
18,7595	0,0368	19,8548
18,9682	0,0367	20,4930
19,1416	0,0364	19,8548
19,3793	0,0359	20,5284
19,5623	0,0362	19,7839
19,7614	0,0356	20,3866
19,9894	0,0364	19,8548
20,1724	0,0359	20,4575
20,3587	0,0357	19,7484
20,5770	0,0356	20,4575
20,7568	0,0356	19,7484
20,9656	0,0357	20,5284
21,1229	0,0356	19,7484
21,2706	0,0357	20,4930
21,5371	0,0351	19,9257
21,7330	0,0351	20,4575
21,9289	0,0346	19,8193
22,1312	0,0345	20,4575
22,3367	0,0343	19,7839
22,5069	0,0340	20,3866
22,7156	0,0351	19,9257
22,9147	0,0346	20,4575
23,0753	0,0336	19,9257
23,2808	0,0335	20,4930
23,4767	0,0332	19,9612
23,6437	0,0332	20,3512
23,8074	0,0329	19,8193
24,0258	0,0329	20,4930
24,1863	0,0332	19,8548
24,3148	0,0325	20,3866
24,4240	0,0325	19,9257
24,7740	0,0328	20,3866
24,9570	0,0326	19,8548
25,1208	0,0318	20,3866
25,2717	0,0323	19,8548
25,4323	0,0319	20,4930
25,6538	0,0319	19,8193
25,8369	0,0316	20,3512
25,9878	0,0310	19,8548
26,1676	0,0308	20,4930
26,3057	0,0310	19,8548
26,5305	0,0309	20,3866
26,6653	0,0303	19,7839
26,8387	0,0307	20,4575
27,0250	0,0301	19,9612
27,1342	0,0298	20,3866
27,2112	0,0299	19,8193
27,5034	0,0299	20,3866
27,6833	0,0294	19,7839
27,8503	0,0286	20,4930
28,0365	0,0292	19,8548
28,2003	0,0292	20,4930
28,3351	0,0285	19,8193
28,4893	0,0285	20,3866
28,6691	0,0282	19,9257
28,8329	0,0282	20,4930
28,9742	0,0283	19,8548
29,1411	0,0277	20,4575
29,2824	0,0275	19,9257
29,4301	0,0267	20,3866
29,5746	0,0266	19,9612
29,6806	0,0266	20,2802
29,7448	0,0259	19,8193
29,9728	0,0266	20,4575
30,1848	0,0264	19,7484
30,3389	0,0259	20,4575
30,4641	0,0254	19,7484
30,6086	0,0248	20,3157
30,7531	0,0253	19,9612
30,8880	0,0247	20,3512
31,0132	0,0245	19,9257
31,1834	0,0244	20,4575
31,3119	0,0244	19,8548
31,4307	0,0240	20,3157
31,5623	0,0237	19,7839
31,7068	0,0240	20,4930
31,8289	0,0234	19,7839
31,8642	0,0226	20,4575
31,9862	0,0224	19,8193
32,1339	0,0228	20,3866
32,3555	0,0226	19,8548
32,4679	0,0221	20,3512
32,5963	0,0218	19,9257
32,7183	0,0212	20,3866
32,8243	0,0207	19,8548
32,9592	0,0216	20,4575
33,0427	0,0201	19,8548
33,1904	0,0206	20,4575
33,3060	0,0204	19,9257
33,4023	0,0200	20,3866
33,5051	0,0197	19,9612
33,6207	0,0194	20,3157
33,7202	0,0185	19,7484
33,8326	0,0193	20,4930
33,8551	0,0185	19,7839
33,9611	0,0188	20,4575
34,1730	0,0183	19,8548
34,2693	0,0180	20,3512
34,3560	0,0175	19,9257
34,4716	0,0174	20,3866
34,5519	0,0164	19,7839
34,6450	0,0166	20,3512
34,7446	0,0166	19,8548
34,8570	0,0167	20,4930
34,9405	0,0157	19,8193
35,0239	0,0161	20,3512
35,1074	0,0151	19,8193
35,2166	0,0147	20,4575
35,2969	0,0155	19,8548
35,3386	0,0146	20,3866
35,4157	0,0144	19,9257
35,4446	0,0146	20,3157
35,5474	0,0142	19,7839
35,7047	0,0134	20,4575
35,7625	0,0140	19,7484
35,8588	0,0129	20,4575
35,9263	0,0126	19,7484
35,9744	0,0126	20,3866
36,0644	0,0125	19,8193
36,1286	0,0115	20,4575
36,2217	0,0118	19,8548
36,2763	0,0115	20,3157
36,3373	0,0118	19,8193
36,4112	0,0108	20,4575
36,4818	0,0112	19,8548
36,5300	0,0105	20,3157
36,5492	0,0107	19,9966
36,6006	0,0102	20,3157
36,6392	0,0099	19,8548
36,7837	0,0099	20,4930
36,8415	0,0092	19,8193
36,8928	0,0091	20,3866
36,9538	0,0091	19,8193

27.01.2016	12:35:17
V	I	G
[V]	[A]	[W/m²]
-0,2119	0,0458	21,0603
0,1991	0,0458	22,0884
0,8124	0,0456	21,0603
1,0372	0,0454	22,0884
1,3198	0,0458	21,0248
1,5542	0,0451	22,1594
1,8560	0,0455	21,0603
2,0808	0,0454	22,2303
2,3473	0,0449	21,0603
2,4629	0,0455	22,2303
2,3698	0,0458	20,9893
2,8194	0,0458	22,2303
3,4006	0,0454	21,1312
3,6318	0,0450	22,1239
3,9015	0,0448	21,1666
4,1360	0,0451	22,1239
4,4057	0,0449	21,1666
4,6658	0,0449	22,1594
4,8424	0,0448	21,1312
5,0704	0,0448	22,2657
4,8585	0,0451	21,0603
5,1154	0,0446	22,2303
5,9213	0,0445	21,1312
6,1365	0,0443	22,1594
6,3998	0,0445	21,1666
6,6599	0,0446	22,1948
6,8815	0,0442	21,1312
7,1448	0,0446	22,1239
7,3696	0,0445	21,1312
7,5911	0,0438	22,2657
7,4595	0,0443	21,0603
7,6457	0,0448	22,3366
8,3907	0,0440	21,0603
8,6251	0,0437	22,2303
8,9077	0,0433	21,1666
9,1485	0,0440	22,2657
9,3701	0,0438	21,1312
9,6366	0,0438	22,2657
9,8711	0,0437	21,1666
10,0284	0,0433	22,2657
9,9610	0,0440	21,1666
9,9481	0,0443	22,1594
10,8440	0,0432	21,2730
11,0752	0,0432	22,1948
11,3546	0,0429	21,1666
11,5890	0,0435	22,1948
11,8395	0,0432	21,1312
12,0386	0,0429	22,1948
12,3051	0,0431	21,1666
12,4657	0,0429	22,2303
12,4560	0,0433	21,0603
12,3115	0,0429	22,3366
13,2717	0,0431	21,0957
13,4707	0,0423	22,2657
13,7405	0,0427	21,2730
13,9749	0,0423	22,1948
14,1804	0,0424	21,1666
14,4277	0,0427	22,2303
14,6589	0,0421	21,2021
14,8515	0,0424	22,2657
14,7392	0,0422	21,1312
14,7424	0,0421	22,2303
15,6029	0,0421	21,3084
15,8695	0,0420	22,2303
16,0814	0,0417	21,3084
16,3190	0,0417	22,2303
16,5310	0,0411	21,2021
16,7686	0,0415	22,2657
16,9966	0,0412	21,2021
17,1957	0,0413	22,3721
17,1989	0,0415	21,0957
16,9227	0,0411	22,3721
17,9342	0,0410	21,2021
18,1173	0,0404	22,3366
18,3645	0,0411	21,3439
18,5893	0,0404	22,2657
18,8012	0,0400	21,2730
19,0517	0,0405	22,3721
19,2315	0,0396	21,2021
19,4178	0,0396	22,4075
19,3825	0,0402	21,1666
19,0774	0,0400	22,2303
20,1756	0,0400	21,3084
20,3651	0,0395	22,3366
20,5834	0,0396	21,3084
20,8275	0,0394	22,4430
21,0490	0,0393	21,2730
21,2449	0,0393	22,4430
21,4601	0,0393	21,3084
21,6142	0,0386	22,3366
21,4922	0,0384	21,3084
21,4504	0,0385	22,2303
22,3078	0,0383	21,2730
22,5262	0,0381	22,4785
22,7253	0,0378	21,2021
22,9500	0,0375	22,4430
23,1652	0,0383	21,2730
23,3450	0,0377	22,3721
23,5794	0,0378	21,2730
23,7175	0,0369	22,3366
23,6886	0,0369	21,2730
23,4574	0,0368	22,4075
24,4336	0,0369	21,3439
24,5974	0,0367	22,4075
24,8157	0,0366	21,3439
25,0052	0,0369	22,3721
25,2075	0,0359	21,3084
25,4323	0,0363	22,4075
25,5832	0,0358	21,2021
25,7630	0,0356	22,4785
25,6731	0,0353	21,2730
25,5960	0,0356	22,4785
26,3924	0,0347	21,3084
26,5979	0,0347	22,4785
26,7938	0,0350	21,1666
26,9640	0,0346	22,4785
27,1952	0,0347	21,2730
27,3493	0,0340	22,4075
27,5323	0,0340	21,3793
27,6929	0,0336	22,4430
27,6415	0,0339	21,2021
27,5227	0,0339	22,4430
28,3062	0,0336	21,3084
28,4957	0,0330	22,4785
28,6884	0,0329	21,3084
28,8329	0,0329	22,4075
29,0320	0,0321	21,2730
29,1989	0,0319	22,5139
29,3595	0,0318	21,3439
29,5136	0,0312	22,4430
29,4944	0,0314	21,3084
29,2696	0,0314	22,4075
30,0724	0,0313	21,3793
30,2361	0,0302	22,4075
30,4256	0,0308	21,3793
30,5733	0,0302	22,4430
30,7339	0,0294	21,3793
30,9362	0,0296	22,4430
31,0807	0,0298	21,3439
31,1898	0,0293	22,4785
31,1288	0,0286	21,3439
31,0100	0,0289	22,5494
31,7325	0,0282	21,3084
31,8867	0,0281	22,4430
32,0247	0,0276	21,3439
32,2014	0,0271	22,5494
32,3362	0,0274	21,3084
32,4775	0,0269	22,5139
32,6477	0,0271	21,3084
32,7601	0,0264	22,5139
32,4904	0,0263	21,3084
32,5482	0,0258	22,5139
33,2257	0,0258	21,4503
33,3702	0,0253	22,4785
33,4987	0,0248	21,3439
33,6271	0,0243	22,5494
33,7684	0,0243	21,5212
33,9322	0,0240	22,5139
34,0092	0,0232	21,3793
34,1601	0,0236	22,5494
34,1120	0,0236	21,3439
33,8840	0,0229	22,4430
34,5519	0,0228	21,4148
34,6900	0,0226	22,5139
34,8152	0,0218	21,3793
34,9340	0,0220	22,6557
35,0721	0,0213	21,3793
35,1524	0,0209	22,6203
35,2519	0,0202	21,3793
35,3740	0,0204	22,6557
35,3130	0,0202	21,3084
35,0721	0,0199	22,6203
35,6822	0,0194	21,4503
35,8460	0,0189	22,5494
35,9455	0,0184	21,4503
36,0676	0,0185	22,6203
36,1318	0,0175	21,4503
36,2634	0,0174	22,6557
36,3566	0,0175	21,3439
36,3919	0,0167	22,5494
36,3855	0,0172	21,4503
36,2024	0,0163	22,4785
36,6873	0,0163	21,4503
36,8254	0,0151	22,5139
36,9282	0,0156	21,5212
36,9860	0,0151	22,6203
37,1080	0,0152	21,3793
37,1883	0,0148	22,6203
37,2364	0,0144	21,4148
37,3103	0,0139	22,6557
37,2332	0,0144	21,3084
36,9185	0,0129	22,6557
37,5736	0,0136	21,3793
37,6507	0,0126	22,6203
37,7213	0,0124	21,5212
37,7984	0,0119	22,6912
37,8626	0,0115	21,3793
37,9172	0,0112	22,6203
37,9718	0,0110	21,4503
38,0424	0,0112	22,6203
37,9589	0,0107	21,4148
37,6282	0,0105	22,6912
38,1612	0,0102	21,5921
38,3089	0,0102	22,5494
38,3475	0,0093	21,4148
38,4374	0,0093	22,6912
38,4759	0,0090	21,4148
38,5241	0,0088	22,6557
38,5787	0,0088	21,3793

27.01.2016	12:40:18
V	I	G
[V]	[A]	[W/m²]
0,4399	0,0754	36,7668
0,8831	0,0754	35,9513
1,2973	0,0749	36,8023
1,6794	0,0752	35,9513
2,0294	0,0746	36,7314
2,5593	0,0749	35,9868
2,9928	0,0751	36,8732
3,3942	0,0745	35,9868
3,8277	0,0748	36,8023
4,2451	0,0743	35,9513
4,6497	0,0746	36,8023
5,0576	0,0742	35,9159
5,4750	0,0745	36,8023
5,8668	0,0740	35,9868
6,3195	0,0738	36,7314
6,6760	0,0736	35,9513
7,0324	0,0740	36,6959
7,5237	0,0741	36,0577
7,9251	0,0734	36,7314
8,3522	0,0735	36,1286
8,7375	0,0731	36,6959
9,1742	0,0732	36,0577
9,5339	0,0722	36,7668
9,9642	0,0726	35,9513
10,3592	0,0726	36,8732
10,7252	0,0724	35,9159
11,1684	0,0725	36,8023
11,5409	0,0724	35,9513
11,9166	0,0726	36,6959
12,2569	0,0722	36,1286
12,7450	0,0716	36,8732
13,1400	0,0714	35,9513
13,5382	0,0716	36,7314
13,9396	0,0713	36,1286
14,3281	0,0709	36,8732
14,6942	0,0709	36,0932
15,1052	0,0704	36,7668
15,5098	0,0708	35,9868
15,8631	0,0703	36,8732
16,2420	0,0698	35,9868
16,6209	0,0699	36,8732
16,9516	0,0705	35,9868
17,3851	0,0697	36,9086
17,7865	0,0694	35,9868
18,1815	0,0694	36,8023
18,5251	0,0686	36,0577
18,8976	0,0688	36,7314
19,3182	0,0689	35,9868
19,6875	0,0686	36,8023
20,0504	0,0678	36,0577
20,4036	0,0667	36,7668
20,8050	0,0676	35,9513
21,1679	0,0677	36,8023
21,4761	0,0675	36,0932
21,7972	0,0671	36,8023
22,2661	0,0669	35,9513
22,6354	0,0661	36,8732
22,9725	0,0657	36,0577
23,3225	0,0653	36,6959
23,7175	0,0651	36,0577
24,0483	0,0649	36,8732
24,3822	0,0646	35,9868
24,7643	0,0643	36,7668
25,1208	0,0642	36,0932
25,4419	0,0635	36,8732
25,7662	0,0634	35,9513
26,0552	0,0628	36,6959
26,5016	0,0626	36,1286
26,8131	0,0622	36,7668
27,1566	0,0615	35,9868
27,5131	0,0616	36,7314
27,8599	0,0615	36,0577
28,1521	0,0606	36,8732
28,4764	0,0596	36,0577
28,8136	0,0601	36,7314
29,1540	0,0594	36,1286
29,4462	0,0585	36,8023
29,7256	0,0584	35,9868
30,0531	0,0583	36,9086
30,3293	0,0578	35,9868
30,7403	0,0569	36,8732
31,0325	0,0568	35,9513
31,3408	0,0557	36,8023
31,6458	0,0552	35,9868
31,9220	0,0541	36,8023
32,2303	0,0538	36,0577
32,5385	0,0540	36,8023
32,8436	0,0531	35,9868
33,0780	0,0521	36,8023
33,3702	0,0515	35,9513
33,6367	0,0513	36,9086
33,8455	0,0504	35,9159
34,2115	0,0498	36,8023
34,4588	0,0483	36,1286
34,7060	0,0476	36,7668
35,0047	0,0476	36,0932
35,2423	0,0469	36,8732
35,5088	0,0461	36,0932
35,7497	0,0451	36,8732
35,9777	0,0443	35,9868
36,1735	0,0429	36,9441
36,4433	0,0423	35,9868
36,4144	0,0423	36,8732
36,8511	0,0412	36,0932
37,0662	0,0405	36,7668
37,3520	0,0396	36,0577
37,5383	0,0381	36,8023
37,7823	0,0377	36,0932
37,9429	0,0373	36,7314
38,1677	0,0356	36,0577
38,3603	0,0350	36,7668
38,5434	0,0339	35,9868
38,7200	0,0339	36,7668
38,8870	0,0323	35,9868
38,9126	0,0316	36,8023
39,1920	0,0302	35,9868
38,7681	0,0307	36,9086
39,5709	0,0294	35,9868
39,7219	0,0277	36,8732
39,8696	0,0267	36,0932
40,0205	0,0264	36,8023
40,1618	0,0253	36,1641
40,2999	0,0249	36,7668
40,4283	0,0236	36,1286
40,5214	0,0227	36,7314
40,6627	0,0226	36,1286
40,6948	0,0212	36,8732
40,5214	0,0212	35,9868
40,2742	0,0202	36,8023
41,1315	0,0193	36,1286
41,2215	0,0184	36,8023
41,3435	0,0177	36,1641
41,4398	0,0175	36,8732
41,5105	0,0163	35,9868
41,5907	0,0156	36,8732
41,7128	0,0155	36,0932
41,7898	0,0152	36,8023
41,8251	0,0137	36,0577
41,8637	0,0129	36,7668
41,7031	0,0129	36,0932
41,5361	0,0120	36,8023
41,6678	0,0120	36,1641
42,1912	0,0108	36,8732
42,2747	0,0103	36,0932
42,3036	0,0096	36,7314
42,3743	0,0091	36,1995
42,4481	0,0090	36,7314
42,4642	0,0081	36,1286
42,5059	0,0081	36,7668

27.01.2016	12:45:17
V	I	G
[V]	[A]	[W/m²]
0,0546	0,0651	31,2713
0,2505	0,0657	31,4840
0,5009	0,0657	31,2358
0,8991	0,0651	31,3422
1,8625	0,0653	31,3777
2,2414	0,0648	31,4131
2,5882	0,0650	31,2004
2,9864	0,0650	31,5195
3,3364	0,0651	31,2713
3,6671	0,0644	31,3777
4,0139	0,0649	31,3067
4,4250	0,0651	31,4131
4,7557	0,0644	31,2358
5,1410	0,0639	31,5195
5,5007	0,0642	31,2358
5,8346	0,0646	31,3777
6,1815	0,0643	31,2713
6,5122	0,0639	31,5195
6,8173	0,0640	31,2358
7,0613	0,0635	31,4840
7,2154	0,0633	31,2358
7,3696	0,0635	31,4131
7,5366	0,0640	31,2713
8,6894	0,0639	31,5195
9,0265	0,0638	31,2713
9,3830	0,0632	31,4840
9,7490	0,0629	31,3422
10,0990	0,0632	31,3777
10,4330	0,0630	31,1295
10,7477	0,0626	31,4840
11,1170	0,0626	31,2358
11,4798	0,0629	31,5549
11,7945	0,0619	31,1295
12,1670	0,0621	31,4840
12,4753	0,0621	31,2004
12,8317	0,0617	31,4840
13,1625	0,0623	31,2358
13,4483	0,0621	31,3422
13,6795	0,0621	31,2358
13,8786	0,0607	31,4131
14,0134	0,0619	31,2713
14,0777	0,0607	31,3422
15,1662	0,0615	31,3422
15,5676	0,0611	31,4131
15,8823	0,0611	31,2713
16,2163	0,0602	31,5549
16,5727	0,0602	31,2358
16,8681	0,0602	31,3422
17,1957	0,0596	31,3067
17,5393	0,0596	31,4840
17,8861	0,0596	31,2713
18,2168	0,0599	31,4840
18,4930	0,0591	31,2358
18,8173	0,0586	31,4840
19,1513	0,0584	31,2358
19,4724	0,0584	31,4131
19,7389	0,0586	31,2004
19,9027	0,0579	31,3777
19,9926	0,0589	31,2358
20,0118	0,0579	31,3067
20,3073	0,0579	31,2713
21,3926	0,0575	31,4131
21,7041	0,0564	31,3067
22,0445	0,0573	31,2713
22,3335	0,0568	31,3067
22,6289	0,0570	31,3422
22,9404	0,0562	31,3067
23,2615	0,0553	31,3777
23,5987	0,0559	31,3422
23,9005	0,0558	31,4131
24,1960	0,0556	31,2713
24,4753	0,0550	31,3422
24,7772	0,0550	31,2358
25,0373	0,0541	31,3422
25,3167	0,0538	31,2358
25,4740	0,0537	31,3777
25,6763	0,0535	31,3067
25,7534	0,0534	31,3422
25,7405	0,0535	31,2004
26,6878	0,0531	31,3777
27,0956	0,0521	31,2713
27,4007	0,0516	31,4131
27,7122	0,0513	31,3777
27,9851	0,0510	31,2713
28,2324	0,0507	31,2713
28,5053	0,0509	31,3422
28,8072	0,0498	31,3777
29,0769	0,0503	31,3777
29,3563	0,0493	31,2713
29,6067	0,0485	31,3422
29,8765	0,0480	31,3067
30,1237	0,0485	31,3777
30,3614	0,0478	31,3067
30,5572	0,0469	31,3067
30,6857	0,0469	31,2358
30,7724	0,0460	31,3777
30,8173	0,0464	31,3067
31,0100	0,0460	31,3422
31,8963	0,0449	31,2004
32,1500	0,0445	31,3422
32,4069	0,0443	31,3422
32,6670	0,0437	31,3777
32,8821	0,0428	31,2004
33,1294	0,0421	31,4131
33,3766	0,0417	31,2713
33,5500	0,0417	31,3422
33,7716	0,0404	31,2358
34,0253	0,0405	31,3777
34,2276	0,0404	31,2713
34,4170	0,0388	31,3422
34,6386	0,0384	31,3067
34,8056	0,0375	31,4840
35,0111	0,0377	31,2713
35,0817	0,0366	31,3067
35,0978	0,0358	31,2358
34,9501	0,0358	31,2713
35,1813	0,0347	31,3067
36,0579	0,0345	31,3777
36,2410	0,0330	31,2713
36,4047	0,0328	31,2713
36,5974	0,0325	31,3422
36,7676	0,0320	31,3067
36,9217	0,0303	31,2713
37,1240	0,0303	31,3422
37,2621	0,0298	31,2004
37,4484	0,0291	31,3422
37,5800	0,0287	31,3067
37,7213	0,0272	31,2713
37,8754	0,0275	31,3067
38,0007	0,0266	31,2713
38,1388	0,0254	31,3422
38,2287	0,0254	31,2713
38,2351	0,0243	31,3422
38,1227	0,0239	31,3422
38,0328	0,0231	31,2358
38,0488	0,0228	31,3777
38,9480	0,0221	31,2713
39,0796	0,0210	31,3777
39,2113	0,0207	31,3067
39,3012	0,0200	31,2713
39,4007	0,0193	31,2713
39,5195	0,0189	31,2713
39,5966	0,0185	31,2713
39,7026	0,0179	31,2713
39,8182	0,0173	31,3422
39,9306	0,0164	31,3777
40,0141	0,0162	31,2358
40,0879	0,0156	31,2358
40,1457	0,0147	31,2358
40,1875	0,0148	31,3067
40,2774	0,0136	31,3067
40,2388	0,0134	31,3067
39,9884	0,0129	31,2713
39,9177	0,0118	31,2358
39,8150	0,0125	31,2004
40,6756	0,0114	31,3067
40,7398	0,0110	31,2713
40,8393	0,0105	31,2358
40,8747	0,0101	31,2713
40,9357	0,0091	31,3422
40,9903	0,0098	31,2004
41,0256	0,0088	31,2713
41,0994	0,0085	31,3777
41,1604	0,0085	31,3067

27.01.2016	12:50:18
V	I	G
[V]	[A]	[W/m²]
0,3211	0,0565	28,0094
0,6551	0,0567	26,1303
0,9858	0,0567	28,0803
1,2845	0,0567	26,1658
1,6313	0,0564	28,0803
1,9588	0,0565	26,2012
2,2414	0,0565	28,0449
2,5625	0,0567	26,2367
2,7937	0,0562	28,0449
3,0056	0,0565	26,1658
3,1566	0,0564	28,0449
3,2561	0,0568	26,0240
3,4199	0,0567	28,0449
4,4250	0,0564	26,2721
4,7557	0,0558	28,0803
5,0961	0,0558	26,1303
5,4300	0,0557	28,0449
5,7415	0,0561	26,3076
6,0177	0,0552	27,9031
6,3484	0,0556	26,1658
6,6567	0,0551	28,0803
6,9425	0,0558	26,2012
7,2668	0,0552	27,9740
7,5719	0,0556	26,2721
7,8641	0,0550	27,9740
8,1820	0,0556	26,2721
8,4710	0,0550	28,1512
8,7279	0,0550	26,1658
8,9109	0,0552	28,0803
9,0618	0,0547	26,2721
8,9173	0,0548	27,9740
9,3894	0,0547	26,2721
10,3078	0,0541	28,0803
10,6000	0,0538	26,2367
10,9500	0,0540	28,0449
11,2551	0,0542	26,2721
11,4959	0,0535	28,0449
11,8459	0,0543	26,2367
12,1542	0,0540	28,0449
12,3918	0,0537	26,2721
12,7354	0,0534	27,9740
13,0148	0,0535	26,2721
13,2941	0,0535	28,0449
13,6185	0,0540	26,2367
13,8786	0,0531	28,1158
14,1547	0,0532	26,3076
14,3249	0,0524	28,1158
14,4983	0,0530	26,2367
14,4758	0,0525	28,0803
14,5112	0,0530	26,2367
15,6286	0,0529	28,2576
15,9337	0,0521	26,2367
16,2484	0,0524	28,1158
16,5021	0,0516	26,2367
16,8168	0,0519	28,0803
17,0897	0,0514	26,3076
17,3498	0,0514	28,0449
17,6613	0,0515	26,3076
17,9471	0,0512	28,1158
18,2136	0,0510	26,2721
18,5090	0,0514	28,0803
18,8012	0,0513	26,2721
19,0164	0,0505	28,0803
19,2861	0,0507	26,2012
19,5141	0,0503	28,1158
19,5559	0,0505	26,3076
19,6650	0,0503	28,0094
19,6650	0,0502	26,3076
20,6316	0,0500	28,1158
21,0201	0,0497	26,2721
21,2899	0,0492	28,0449
21,5725	0,0492	26,3785
21,8229	0,0491	28,1512
22,0991	0,0492	26,2367
22,3753	0,0486	28,0803
22,6193	0,0482	26,3785
22,8762	0,0482	28,0803
23,1491	0,0477	26,2721
23,4285	0,0476	28,1512
23,6886	0,0480	26,4140
23,9198	0,0469	28,1158
24,1478	0,0467	26,2721
24,3405	0,0469	28,0803
24,4368	0,0472	26,3076
24,5010	0,0461	28,1158
24,4079	0,0469	26,2367
25,1047	0,0460	28,1158
25,7405	0,0458	26,2721
25,9942	0,0456	28,1158
26,2511	0,0445	26,3076
26,4919	0,0449	28,2576
26,7167	0,0450	26,2367
26,9608	0,0442	28,1158
27,2016	0,0446	26,2721
27,4842	0,0445	28,1867
27,7186	0,0439	26,3785
27,9305	0,0432	28,1512
28,1778	0,0432	26,2721
28,4250	0,0424	28,1512
28,6370	0,0429	26,4140
28,7879	0,0418	28,0449
28,9099	0,0417	26,4494
28,9324	0,0410	28,0803
29,0159	0,0417	26,2721
29,2760	0,0411	28,1867
30,0242	0,0402	26,4140
30,2297	0,0406	28,2576
30,4545	0,0400	26,2012
30,6728	0,0393	28,1512
30,9137	0,0390	26,2721
31,1192	0,0388	28,2576
31,3119	0,0381	26,3785
31,5238	0,0378	28,1158
31,7325	0,0373	26,3076
31,9412	0,0374	28,1867
32,1275	0,0366	26,3785
32,3587	0,0363	28,1867
32,5096	0,0356	26,3785
32,6670	0,0358	28,1512
32,8339	0,0358	26,4494
32,6702	0,0346	28,1512
32,9335	0,0348	26,3785
32,6894	0,0341	28,1867
33,4922	0,0336	26,3785
33,8647	0,0326	28,1512
34,0734	0,0326	26,3785
34,2276	0,0320	28,2931
34,3881	0,0318	26,4140
34,5937	0,0318	28,1867
34,7671	0,0309	26,4140
34,9051	0,0298	28,2576
35,0689	0,0296	26,4140
35,2487	0,0293	28,1512
35,3868	0,0283	26,4494
35,5345	0,0280	28,1867
35,6854	0,0277	26,3076
35,8332	0,0276	28,0449
35,9423	0,0264	26,4849
35,9712	0,0256	28,1512
35,9552	0,0261	26,3785
35,7497	0,0255	28,1512
35,8877	0,0248	26,3076
36,7226	0,0247	28,2576
36,8447	0,0237	26,5203
36,9763	0,0229	28,0803
37,0983	0,0229	26,4140
37,2172	0,0222	28,2576
37,3328	0,0212	26,4494
37,4676	0,0221	28,1867
37,5736	0,0207	26,4140
37,6764	0,0201	28,2576
37,8144	0,0199	26,4494
37,9204	0,0191	28,2576
37,9975	0,0188	26,3785
38,0906	0,0184	28,1867
38,1869	0,0180	26,5203
38,2030	0,0173	28,1867
38,2255	0,0174	26,4140
37,9782	0,0163	28,1867
37,9108	0,0161	26,4140
38,4727	0,0161	28,2576
38,7874	0,0152	26,5203
38,8613	0,0147	28,1512
38,9351	0,0142	26,4140
39,0443	0,0144	28,2931
39,0957	0,0130	26,4494
39,1824	0,0130	28,1867
39,2755	0,0129	26,5203
39,3461	0,0126	28,3285
39,3847	0,0120	26,4140
39,4521	0,0117	28,2576
39,5420	0,0112	26,3785
39,5934	0,0107	28,2576
39,6351	0,0105	26,4494
39,6416	0,0099	28,1867
39,5388	0,0102	26,3785
39,2723	0,0093	28,3640
39,2659	0,0092	26,4140
39,2177	0,0090	28,3994
39,9916	0,0085	26,5203

27.01.2016	12:55:17
V	I	G
[V]	[A]	[W/m²]
0,3532	0,0570	26,9103
0,6551	0,0567	27,6549
0,9826	0,0565	26,8040
1,3005	0,0567	27,6549
1,6409	0,0567	26,8040
1,9781	0,0565	27,8676
2,2895	0,0568	26,8394
2,5914	0,0567	27,8676
2,8997	0,0562	26,8040
3,2176	0,0558	27,8676
3,5547	0,0567	26,8040
3,8662	0,0562	27,8322
4,1905	0,0564	26,8394
4,4828	0,0559	27,8676
4,7942	0,0561	26,9458
5,0897	0,0558	27,7258
5,4204	0,0556	26,9103
5,7158	0,0557	27,7967
6,0402	0,0552	26,8040
6,3324	0,0552	27,7612
6,6278	0,0556	26,7685
6,9553	0,0553	27,8322
7,2765	0,0559	26,7331
7,5558	0,0552	27,7967
7,8834	0,0551	26,7331
8,1884	0,0551	27,7258
8,5063	0,0552	26,9103
8,7825	0,0547	27,8322
9,0779	0,0546	26,7685
9,3733	0,0543	27,7612
9,7233	0,0553	26,9103
9,9610	0,0548	27,8676
10,2596	0,0546	26,8040
10,5358	0,0542	27,7967
10,8697	0,0546	26,8040
11,1106	0,0542	27,8322
11,4349	0,0546	26,8040
11,7110	0,0543	27,7612
12,0707	0,0537	26,8040
12,3244	0,0546	27,7967
12,6744	0,0540	26,9458
12,9216	0,0537	27,8676
13,2620	0,0538	26,8040
13,5896	0,0537	27,7967
13,9235	0,0534	26,9103
14,2222	0,0531	27,9031
14,4951	0,0525	26,9103
14,7873	0,0525	27,8676
15,0924	0,0524	26,7685
15,3910	0,0530	27,8322
15,6800	0,0525	26,8040
15,9722	0,0524	27,8322
16,2644	0,0521	26,9103
16,5245	0,0519	27,7612
16,8232	0,0514	26,8040
17,1090	0,0519	27,7258
17,4172	0,0516	26,9103
17,6902	0,0516	27,8676
17,9599	0,0509	26,8394
18,2393	0,0509	27,8322
18,5476	0,0510	26,8394
18,8109	0,0512	27,7258
19,1031	0,0510	26,9103
19,3760	0,0505	27,8322
19,6586	0,0504	26,9103
19,9123	0,0502	27,7258
20,2109	0,0503	26,8040
20,4678	0,0496	27,8676
20,7536	0,0497	26,8040
21,0458	0,0497	27,9740
21,3252	0,0492	26,8394
21,5596	0,0486	27,7967
21,8647	0,0491	26,8394
22,1312	0,0491	27,7967
22,3753	0,0483	26,9103
22,6289	0,0478	27,8322
22,9244	0,0487	26,8394
23,1588	0,0482	27,9031
23,4606	0,0478	26,9103
23,7047	0,0476	27,9031
23,9872	0,0482	26,9103
24,2313	0,0476	27,9740
24,5010	0,0467	26,9458
24,7258	0,0470	27,8322
24,9763	0,0464	26,8394
25,2492	0,0464	27,7967
25,5061	0,0460	26,8394
25,7630	0,0459	27,7612
26,0327	0,0455	26,8394
26,2704	0,0454	27,7967
26,5144	0,0449	26,9458
26,7713	0,0448	27,8322
26,9929	0,0437	26,9458
27,2337	0,0440	27,7967
27,4906	0,0440	26,8394
27,7379	0,0432	27,8322
27,9883	0,0432	26,9812
28,1810	0,0432	27,8322
28,4315	0,0428	26,9103
28,6466	0,0421	27,8322
28,9035	0,0418	26,9103
29,1187	0,0413	27,7967
29,3499	0,0412	26,9103
29,5939	0,0413	27,7612
29,8219	0,0408	26,9103
30,0499	0,0404	27,8322
30,2458	0,0393	26,9458
30,4673	0,0393	27,8676
30,6857	0,0394	26,8394
30,8816	0,0393	27,7612
31,1224	0,0383	26,9103
31,3054	0,0380	27,7612
31,5238	0,0375	26,8394
31,7518	0,0377	27,8322
31,9573	0,0369	26,9812
32,1371	0,0364	27,6549
32,3330	0,0363	26,9103
32,5514	0,0363	27,7258
32,7472	0,0357	26,9458
32,9174	0,0350	27,7258
33,1326	0,0348	26,9103
33,3253	0,0341	27,8676
33,4922	0,0337	26,8394
33,6656	0,0329	27,7967
33,8679	0,0332	26,8040
34,0606	0,0326	27,8322
34,2083	0,0314	26,9103
34,3817	0,0308	27,8322
34,5583	0,0308	26,9103
34,7221	0,0307	27,8322
34,8987	0,0301	26,8040
35,0689	0,0298	27,8676
35,2423	0,0296	26,9103
35,3740	0,0286	27,8676
35,5570	0,0282	26,9103
35,6790	0,0277	27,9031
35,8396	0,0271	26,9103
35,9937	0,0266	27,9031
36,1414	0,0264	26,9458
36,2763	0,0256	27,8322
36,3983	0,0254	26,9103
36,5203	0,0247	27,7967
36,6777	0,0244	26,8040
36,7965	0,0234	27,8676
36,9506	0,0234	26,9103
37,0662	0,0229	27,9031
37,1722	0,0220	26,9458
37,2942	0,0218	27,7967
37,4130	0,0213	26,8394
37,4965	0,0204	27,8676
37,6250	0,0207	26,9103
37,7053	0,0194	27,7967
37,8401	0,0199	26,8394
37,8979	0,0191	27,7967
38,0392	0,0189	26,9103
38,1099	0,0182	27,8322
38,2287	0,0179	26,9458
38,2865	0,0172	27,7967
38,3989	0,0169	26,9812
38,4470	0,0161	27,7967
38,5947	0,0158	26,9103
38,6236	0,0156	27,8676
38,7906	0,0148	26,9458
38,8516	0,0146	27,9031
38,9737	0,0140	26,9458
39,0571	0,0135	27,9031
39,1631	0,0135	26,9812
39,2241	0,0128	27,8322
39,2659	0,0126	26,9103
39,3815	0,0124	27,7967
39,4553	0,0114	26,8394
39,4939	0,0110	27,7612
39,5709	0,0108	26,8394
39,6255	0,0101	27,8322
39,6865	0,0102	26,9458
39,7443	0,0096	27,6549
39,8118	0,0091	26,9458
39,8631	0,0090	27,7612
39,9209	0,0090	26,8394
39,9691	0,0090	27,7612

27.01.2016	13:00:17
V	I	G
[V]	[A]	[W/m²]
0,2151	0,0525	23,9676
0,6005	0,0523	25,6339
0,8606	0,0525	24,0385
1,1689	0,0520	25,6694
1,4868	0,0525	24,0030
1,8143	0,0519	25,6339
2,0712	0,0519	24,0030
2,3955	0,0521	25,5985
2,6845	0,0520	24,1094
2,9510	0,0523	25,5985
3,2689	0,0523	24,1094
3,5226	0,0519	25,5985
3,8405	0,0513	23,9676
4,1295	0,0513	25,6339
4,4089	0,0514	24,0385
4,7268	0,0516	25,5985
5,0158	0,0519	24,1094
5,2631	0,0510	25,5985
5,5874	0,0515	24,0739
5,8635	0,0509	25,6339
6,1237	0,0513	24,0385
6,2296	0,0514	25,6339
6,0787	0,0514	24,0739
6,3292	0,0513	25,6694
6,7980	0,0515	23,9676
7,2347	0,0509	25,5985
7,7260	0,0509	24,0030
8,0118	0,0505	25,7049
8,3522	0,0498	24,0385
8,6733	0,0504	25,5985
8,9302	0,0505	24,0739
9,2385	0,0507	25,4921
9,5371	0,0505	24,0739
9,8036	0,0497	25,5985
10,1119	0,0498	23,9676
10,3848	0,0500	25,5630
10,6514	0,0497	24,0739
10,9243	0,0496	25,6339
11,1684	0,0496	24,0030
11,4638	0,0493	25,4567
11,7688	0,0494	24,0739
12,0225	0,0487	25,5985
12,3147	0,0491	23,9676
12,5716	0,0492	25,5985
12,8285	0,0488	23,8967
13,1239	0,0491	25,6339
13,3840	0,0483	24,0385
13,6377	0,0485	25,5630
13,6698	0,0488	24,0030
13,4258	0,0483	25,5630
13,7630	0,0487	24,0385
14,3538	0,0486	25,5985
14,7263	0,0483	24,0030
14,9318	0,0478	25,5630
15,3910	0,0477	23,9676
15,7025	0,0469	25,5630
16,0076	0,0476	23,9676
16,2966	0,0476	25,5630
16,5599	0,0476	24,0030
16,8457	0,0478	25,5630
17,0961	0,0472	23,8967
17,3851	0,0469	25,5985
17,6420	0,0472	23,9676
17,8957	0,0469	25,5630
18,1462	0,0469	23,8967
18,4191	0,0470	25,4567
18,6471	0,0467	24,0030
18,9201	0,0464	25,5630
19,1577	0,0459	23,9676
19,4082	0,0455	25,4567
19,7068	0,0456	23,9676
19,9412	0,0456	25,5630
20,1853	0,0460	24,0385
20,4454	0,0459	25,5985
20,6798	0,0450	24,0030
20,9174	0,0448	25,5630
20,8500	0,0450	24,0385
20,5995	0,0443	25,4212
21,1004	0,0451	24,0385
21,5179	0,0442	25,4212
21,8229	0,0446	24,0030
22,2051	0,0442	25,4212
22,5904	0,0439	23,8967
22,8023	0,0429	25,4921
23,1010	0,0433	23,8257
23,3450	0,0435	25,4921
23,6148	0,0429	23,9676
23,8588	0,0437	25,5630
24,0739	0,0423	24,0385
24,3244	0,0421	25,5985
24,5524	0,0421	24,0030
24,7772	0,0415	25,3858
24,9955	0,0418	23,9676
25,2556	0,0420	25,4921
25,4772	0,0420	23,8967
25,7245	0,0412	25,4921
25,9428	0,0411	23,9676
26,1740	0,0405	25,4921
26,3860	0,0400	23,9676
26,6204	0,0408	25,5985
26,8291	0,0402	23,9676
27,0603	0,0401	25,5630
27,2658	0,0391	24,0030
27,4906	0,0390	25,5985
27,2433	0,0391	23,8967
27,1855	0,0391	25,4212
27,5516	0,0386	23,8257
27,8567	0,0383	25,5630
28,4090	0,0383	23,8612
28,6338	0,0377	25,4921
28,8842	0,0374	24,0030
29,0769	0,0369	25,3149
29,3177	0,0364	23,8967
29,5650	0,0366	25,4567
29,7480	0,0362	23,9676
29,9407	0,0357	25,4567
30,1494	0,0351	23,8612
30,3678	0,0353	25,3503
30,5733	0,0351	23,8967
30,7692	0,0351	25,4212
30,9458	0,0346	23,8967
31,1385	0,0346	25,4212
31,3183	0,0341	23,9676
31,5110	0,0330	25,3858
31,7004	0,0329	23,8257
31,8834	0,0325	25,4567
32,0633	0,0325	23,8612
32,2270	0,0325	25,4921
32,4133	0,0321	23,8967
32,5899	0,0320	25,4921
32,7151	0,0309	23,9676
32,3266	0,0308	25,4921
32,4743	0,0304	23,8967
32,6894	0,0293	25,4212
32,9592	0,0294	23,8612
33,3766	0,0291	25,4921
33,5918	0,0287	23,8967
33,8166	0,0285	25,3149
34,0028	0,0281	23,8257
34,1826	0,0271	25,3858
34,3079	0,0267	23,8257
34,4588	0,0265	25,3858
34,6193	0,0263	23,9676
34,7895	0,0258	25,4212
34,9276	0,0250	23,7903
35,0721	0,0253	25,3503
35,1877	0,0245	23,8612
35,3226	0,0243	25,3858
35,4510	0,0232	23,8612
35,6084	0,0237	25,4567
35,7176	0,0231	23,8967
35,8749	0,0227	25,3503
36,0033	0,0222	23,8612
36,1125	0,0216	25,2439
36,2121	0,0216	23,7903
36,3180	0,0210	25,3503
36,4593	0,0210	23,9676
36,4593	0,0202	25,4921
36,0162	0,0199	23,8967
36,1125	0,0190	25,3503
36,4144	0,0188	23,7903
36,7323	0,0180	25,3149
36,8896	0,0182	23,8612
37,0694	0,0175	25,3503
37,2364	0,0175	23,9676
37,3520	0,0171	25,3149
37,4612	0,0167	23,8257
37,5640	0,0155	25,2439
37,6571	0,0158	23,7903
37,7470	0,0157	25,3503
37,8401	0,0147	23,8612
37,9300	0,0151	25,3858
38,0232	0,0142	23,7903
38,1131	0,0139	25,2439
38,1805	0,0136	23,7903
38,2576	0,0132	25,2085
38,3122	0,0134	23,7903
38,3892	0,0124	25,2439
38,4502	0,0121	23,8257
38,5273	0,0118	25,3503
38,5915	0,0114	23,8612
38,6814	0,0112	25,3149
38,7360	0,0110	23,8612
38,8099	0,0107	25,3149
38,8516	0,0109	23,7903
38,3956	0,0099	25,3149
38,2062	0,0098	23,7194
38,4567	0,0091	25,2439
38,5723	0,0091	23,7903
38,7714	0,0085	25,4212

27.01.2016	13:05:17
V	I	G
[V]	[A]	[W/m²]
0,3661	0,0613	29,9949
0,7161	0,0610	28,4703
1,0597	0,0615	29,9949
1,3904	0,0605	28,3994
1,7340	0,0610	30,0304
2,0937	0,0612	28,5413
2,4051	0,0607	29,9595
2,7841	0,0606	28,5767
3,0923	0,0610	29,9949
3,4488	0,0604	28,4703
3,8020	0,0599	29,9949
4,0171	0,0611	28,4703
4,4057	0,0604	30,0304
4,7653	0,0601	28,4703
5,1250	0,0604	30,1367
5,4589	0,0605	28,5413
5,8122	0,0602	30,0304
6,1493	0,0604	28,5767
6,4705	0,0597	30,0304
6,8108	0,0599	28,6122
7,1191	0,0596	30,0304
7,4049	0,0594	28,5767
7,7838	0,0592	30,0658
8,1081	0,0592	28,4703
8,3522	0,0596	30,1722
8,6926	0,0595	28,4703
9,0779	0,0588	30,0304
9,4311	0,0595	28,4703
9,7619	0,0588	30,0304
10,0766	0,0588	28,4703
10,3913	0,0586	30,0304
10,7252	0,0586	28,4349
11,0206	0,0584	30,0304
11,3482	0,0584	28,4703
11,6789	0,0579	29,9949
12,0418	0,0580	28,5413
12,3372	0,0583	30,0658
12,6615	0,0583	28,4349
12,8574	0,0574	30,1367
13,2684	0,0580	28,5413
13,5896	0,0575	29,9949
13,9043	0,0569	28,4703
14,2478	0,0574	30,0658
14,5786	0,0570	28,5413
14,8644	0,0569	29,9949
15,1727	0,0567	28,5413
15,5162	0,0564	30,1722
15,8117	0,0568	28,4703
16,1103	0,0564	30,0304
16,4507	0,0564	28,5767
16,7365	0,0557	30,0658
16,9677	0,0567	28,6122
17,2438	0,0559	29,9595
17,6356	0,0558	28,6122
17,9567	0,0551	29,9595
18,2746	0,0553	28,5767
18,5893	0,0556	30,0304
18,8655	0,0550	28,5767
19,1737	0,0551	29,9595
19,4242	0,0540	28,5413
19,7871	0,0548	29,9949
20,0729	0,0540	28,5767
20,3876	0,0541	30,1367
20,6637	0,0535	28,5413
20,9752	0,0541	30,1367
21,1582	0,0534	28,5413
21,4890	0,0535	30,1367
21,8294	0,0531	28,4349
22,1473	0,0530	30,1367
22,4331	0,0527	28,5413
22,7317	0,0529	30,0658
23,0078	0,0523	28,6122
23,3033	0,0521	30,0658
23,5762	0,0516	28,6122
23,8716	0,0520	29,9949
24,1382	0,0513	28,6122
24,4304	0,0512	30,0304
24,7033	0,0509	28,6476
24,9923	0,0504	30,1722
25,1400	0,0502	28,5767
25,5254	0,0502	30,0658
25,8080	0,0494	28,6476
26,0905	0,0502	29,9595
26,3603	0,0492	28,6476
26,6140	0,0494	29,9949
26,8837	0,0483	28,6122
27,1631	0,0483	30,0304
27,4167	0,0477	28,5767
27,6865	0,0480	30,0304
27,9402	0,0475	28,6122
28,1938	0,0472	30,0304
28,4507	0,0467	28,6476
28,6562	0,0464	30,1367
28,8875	0,0460	28,5413
29,1636	0,0456	30,0304
29,4558	0,0450	28,6476
29,7256	0,0450	30,1367
29,9471	0,0443	28,5767
30,1976	0,0446	30,1367
30,3903	0,0437	28,5767
30,6600	0,0435	30,1367
30,9297	0,0431	28,6122
31,1224	0,0427	30,0304
31,3793	0,0418	28,6122
31,5944	0,0415	30,1367
31,8353	0,0413	28,6476
31,8995	0,0411	30,0658
32,2174	0,0404	28,6122
32,5000	0,0405	29,9949
32,7119	0,0390	28,6122
32,9174	0,0386	30,0658
33,1422	0,0384	28,6476
33,3734	0,0384	30,0658
33,5500	0,0378	28,5767
33,7684	0,0373	30,1367
33,9643	0,0366	28,6831
34,1730	0,0364	30,0658
34,3689	0,0362	28,6476
34,5680	0,0354	30,1367
34,6707	0,0347	28,6476
34,8281	0,0345	30,1722
35,1171	0,0332	28,5767
35,3194	0,0330	30,1722
35,4831	0,0325	28,5767
35,6662	0,0321	30,1367
35,8396	0,0309	28,6476
35,9969	0,0307	29,9949
36,1671	0,0303	28,6122
36,3373	0,0296	30,1367
36,4947	0,0291	28,6476
36,6616	0,0289	29,9949
36,8286	0,0276	28,6476
36,9474	0,0271	30,2076
37,0052	0,0274	28,6122
37,1883	0,0263	30,0304
37,4034	0,0258	28,7185
37,5286	0,0248	30,0658
37,6667	0,0249	28,7185
37,7984	0,0234	30,0658
37,9429	0,0238	28,7185
38,0874	0,0228	30,2076
38,1901	0,0218	28,6122
38,3154	0,0217	30,0304
38,4406	0,0207	28,7185
38,5209	0,0209	30,2076
38,6718	0,0200	28,6476
38,7264	0,0195	30,1367
38,7810	0,0190	28,6831
38,9415	0,0180	30,1722
39,0860	0,0174	28,6476
39,1760	0,0174	30,0658
39,2755	0,0167	28,7185
39,3815	0,0167	30,1722
39,4553	0,0156	28,6122
39,5452	0,0158	30,1722
39,6416	0,0147	28,6831
39,6994	0,0147	30,1367
39,8086	0,0137	28,6122
39,8664	0,0132	30,0658
39,9627	0,0129	28,7185
39,8696	0,0128	30,2431
40,0173	0,0121	28,6122
40,1329	0,0112	30,1367
40,2388	0,0110	28,6476
40,2934	0,0105	29,9949
40,3352	0,0101	28,6122
40,3769	0,0098	30,2076
40,4765	0,0098	28,6122
40,5054	0,0091	30,1367
40,5664	0,0087	28,6831
40,6145	0,0083	30,0658

27.01.2016	13:10:18
V	I	G
[V]	[A]	[W/m²]
0,4977	0,0801	38,3977
0,5459	0,0801	39,0005
1,3294	0,0801	38,3268
1,8207	0,0799	38,9296
2,2992	0,0803	38,3623
2,7487	0,0799	38,8941
3,1887	0,0801	38,5396
3,6061	0,0797	38,8587
4,0685	0,0797	38,4686
4,2644	0,0796	38,9296
4,8777	0,0789	38,3268
5,2855	0,0790	38,9296
5,7993	0,0789	38,4686
6,2746	0,0795	38,9296
6,6824	0,0790	38,4686
7,1576	0,0783	38,8941
7,5590	0,0783	38,4686
7,9733	0,0786	38,8941
8,1820	0,0785	38,3977
8,8082	0,0779	38,9296
9,2963	0,0785	38,4686
9,7298	0,0780	38,9296
10,1665	0,0773	38,5041
10,5711	0,0768	38,8232
11,0367	0,0778	38,5396
11,4317	0,0772	38,8941
11,6340	0,0778	38,4686
12,2377	0,0772	38,8232
12,6969	0,0773	38,6105
13,1079	0,0762	38,8587
13,5382	0,0763	38,5750
13,9428	0,0762	38,8587
14,3923	0,0762	38,6105
14,7809	0,0758	38,9296
14,7488	0,0759	38,5396
15,4777	0,0754	38,9296
16,0140	0,0748	38,4686
16,4700	0,0751	38,8941
16,8489	0,0743	38,5750
17,2856	0,0745	39,0359
17,6677	0,0743	38,5750
18,0627	0,0745	39,0005
17,9471	0,0743	38,5041
18,7499	0,0736	38,9296
19,2572	0,0732	38,5750
19,7132	0,0732	38,8941
20,0793	0,0724	38,5041
20,4614	0,0724	38,9296
20,8821	0,0726	38,5041
21,2899	0,0722	39,0005
21,5789	0,0721	38,5750
21,9482	0,0714	39,0359
22,4234	0,0714	38,5750
22,8344	0,0714	38,8941
23,2358	0,0709	38,6105
23,5730	0,0699	39,0359
23,9905	0,0699	38,6105
24,3822	0,0696	38,9296
24,4336	0,0696	38,6105
24,8254	0,0684	39,0005
25,4676	0,0687	38,5396
25,8947	0,0681	39,1423
26,2318	0,0680	38,4686
26,5883	0,0676	38,9296
26,9865	0,0671	38,6459
27,3525	0,0670	39,0359
26,8869	0,0661	38,6459
27,8342	0,0651	39,0005
28,3737	0,0649	38,5396
28,7751	0,0650	39,0005
29,1058	0,0640	38,6814
29,4301	0,0635	39,0005
29,8026	0,0632	38,5750
30,1334	0,0617	39,0359
29,8508	0,0617	38,6459
30,5765	0,0613	39,0005
31,1160	0,0611	38,7523
31,4339	0,0595	39,0005
31,7871	0,0594	38,6459
32,0890	0,0580	39,0359
32,4422	0,0580	38,6105
32,7280	0,0574	39,0714
32,7280	0,0568	38,5750
33,1840	0,0561	39,0359
33,5725	0,0551	38,6814
33,9322	0,0541	39,0714
34,2597	0,0532	38,6814
34,5166	0,0524	39,0359
34,8088	0,0521	38,6105
35,0753	0,0510	39,1423
35,1973	0,0505	38,6459
35,3611	0,0493	39,0714
35,8299	0,0488	38,6814
36,1286	0,0473	39,1423
36,4144	0,0473	38,6105
36,6552	0,0461	39,0714
36,8896	0,0449	38,7523
37,1112	0,0435	39,1777
37,3071	0,0428	38,6459
37,1690	0,0418	39,0714
37,7566	0,0406	38,6459
38,0360	0,0401	39,0714
38,2576	0,0388	38,7523
38,4534	0,0385	39,0714
38,6782	0,0369	38,7877
38,8613	0,0362	39,0005
39,0571	0,0354	38,7877
38,6750	0,0336	39,0714
39,3718	0,0331	38,6814
39,5806	0,0319	39,1068
39,7379	0,0308	38,7523
39,9209	0,0299	39,1777
40,0911	0,0294	38,6105
40,2517	0,0283	39,1068
40,3801	0,0269	38,8232
39,9595	0,0256	39,0005
40,5792	0,0256	38,6459
40,7976	0,0243	39,1777
40,9164	0,0239	38,6814
41,0641	0,0224	39,1777
41,1733	0,0213	38,7877
41,2793	0,0207	39,1068
41,3852	0,0200	38,7523
40,8843	0,0193	39,1423
41,4783	0,0182	38,8941
41,6614	0,0171	39,1068
41,8059	0,0166	38,8232
41,9022	0,0161	39,1423
41,9697	0,0153	38,7877
42,0307	0,0144	39,1068
42,1206	0,0140	38,7523
41,4848	0,0132	39,1777
42,1174	0,0126	38,7523
42,3004	0,0118	39,1068
42,4160	0,0114	38,7877
42,4577	0,0108	39,2132
42,5220	0,0102	38,7877
42,6022	0,0098	39,2132
42,6279	0,0091	38,8232
41,9568	0,0087	39,1423
42,5669	0,0083	38,7877
42,7596	0,0077	39,1423

27.01.2016	13:15:18
V	I	G
[V]	[A]	[W/m²]
0,3468	0,0543	25,4921
0,6230	0,0541	25,9530
0,9088	0,0535	25,4921
1,2074	0,0540	25,8467
1,5478	0,0535	25,5985
1,8753	0,0541	25,9176
2,1772	0,0540	25,5630
2,3088	0,0538	25,8821
2,7712	0,0538	25,5985
3,0602	0,0535	25,9530
3,3813	0,0532	25,5630
3,6575	0,0535	25,9530
3,9915	0,0535	25,5985
4,1777	0,0531	26,0240
4,5566	0,0531	25,4567
4,8713	0,0532	26,1303
5,1121	0,0531	25,4567
5,4782	0,0534	26,0240
5,7030	0,0531	25,5630
6,0402	0,0530	26,1658
6,3420	0,0525	25,5985
6,6471	0,0534	26,0949
6,9361	0,0529	25,5630
7,2187	0,0524	26,0949
7,4466	0,0530	25,5630
7,7999	0,0524	26,0240
8,1178	0,0524	25,5985
8,3811	0,0521	26,1303
8,6765	0,0525	25,5985
8,9719	0,0523	26,1658
9,2031	0,0527	25,6339
9,5499	0,0516	26,1303
9,8678	0,0520	25,6339
10,1183	0,0520	26,1303
10,4170	0,0514	25,6339
10,5711	0,0524	25,9885
10,9982	0,0514	25,6339
11,3000	0,0512	26,1658
11,6051	0,0513	25,6694
11,8748	0,0515	26,0949
12,1445	0,0513	25,7403
12,3918	0,0514	26,1303
12,7033	0,0514	25,6694
12,9891	0,0513	26,0949
13,2749	0,0507	25,6694
13,5510	0,0505	25,9885
13,7437	0,0510	25,7403
14,1226	0,0505	25,9885
14,3988	0,0502	25,6694
14,6878	0,0512	26,0240
14,9543	0,0498	25,7403
15,2594	0,0504	26,0949
15,4777	0,0505	25,7403
15,7796	0,0498	26,0240
16,0557	0,0494	25,7403
16,3608	0,0504	26,0949
16,6080	0,0496	25,7758
16,7975	0,0497	26,1658
17,1186	0,0493	25,7758
17,4397	0,0494	26,1303
17,6934	0,0485	25,7403
17,9888	0,0492	26,0949
18,2489	0,0488	25,7403
18,4191	0,0486	25,9885
18,7756	0,0487	25,7758
19,0710	0,0486	26,1303
19,3247	0,0480	25,7403
19,5880	0,0482	26,2012
19,8706	0,0483	25,8467
20,0729	0,0476	26,2367
20,3908	0,0476	25,8467
20,6316	0,0476	26,1303
20,9013	0,0477	25,7403
21,1550	0,0473	26,2012
21,3059	0,0472	25,7049
21,6752	0,0470	26,2367
21,9225	0,0469	25,7403
22,1922	0,0467	26,2012
22,4202	0,0460	25,8467
22,7124	0,0465	26,0949
22,8858	0,0455	25,7758
23,2069	0,0458	26,0240
23,4574	0,0456	25,8821
23,6822	0,0451	26,1303
23,9680	0,0451	25,8821
24,0643	0,0449	26,2012
24,4336	0,0448	25,8467
24,7065	0,0446	26,2367
24,9345	0,0442	25,8467
25,2011	0,0437	26,2367
25,4130	0,0440	25,9176
25,5960	0,0433	26,2367
25,8915	0,0432	25,8821
26,1580	0,0433	26,3076
26,3699	0,0424	25,8467
26,6397	0,0423	26,3785
26,7713	0,0423	25,8467
27,0571	0,0421	26,1658
27,3140	0,0422	25,8821
27,5516	0,0420	26,2367
27,7636	0,0411	25,9176
27,9883	0,0415	26,2012
28,1553	0,0411	25,8821
28,4250	0,0401	26,1658
28,6851	0,0406	25,9530
28,8553	0,0395	26,1658
29,1219	0,0395	26,0240
29,3017	0,0391	26,0949
29,5393	0,0393	26,0240
29,7545	0,0386	26,0949
29,9568	0,0378	26,0240
30,1719	0,0381	26,0949
30,3646	0,0377	25,9530
30,4256	0,0378	26,1303
30,7852	0,0366	25,9530
31,0036	0,0367	26,1658
31,1802	0,0358	25,9885
31,3986	0,0358	26,2012
31,5688	0,0358	25,9530
31,7068	0,0354	26,2367
31,9573	0,0343	25,9885
32,1532	0,0339	26,2721
32,3394	0,0337	25,9530
32,5385	0,0335	26,2721
32,5835	0,0339	25,9530
32,8628	0,0335	26,2012
33,0651	0,0320	26,0949
33,2546	0,0318	26,3785
33,4473	0,0318	26,0240
33,5982	0,0310	26,2012
33,7170	0,0309	26,0949
33,9289	0,0299	26,2012
34,1248	0,0302	26,1303
34,2308	0,0299	26,1303
34,4395	0,0287	26,1303
34,5744	0,0287	26,2367
34,7221	0,0283	26,0240
34,8923	0,0276	26,0949
35,0721	0,0281	26,1303
35,2038	0,0271	26,2012
35,3097	0,0259	26,0240
35,3643	0,0261	26,2721
35,6565	0,0256	26,0949
35,7882	0,0248	26,2367
35,9070	0,0248	25,9885
36,0419	0,0243	26,3785
36,1960	0,0236	26,1303
36,2410	0,0226	26,2367
36,4401	0,0229	26,1303
36,5653	0,0220	26,2367
36,6841	0,0217	26,1303
36,8029	0,0216	26,3785
36,8061	0,0213	26,1303
37,0149	0,0201	26,2721
37,1690	0,0197	26,1303
37,2589	0,0191	26,2367
37,3809	0,0189	26,1303
37,4965	0,0188	26,2721
37,5351	0,0182	26,2012
37,6924	0,0182	26,2721
37,8080	0,0177	26,1658
37,8787	0,0172	26,2721
37,9975	0,0169	26,2012
38,0135	0,0172	26,4494
38,1773	0,0161	26,1303
38,2640	0,0157	26,4140
38,3539	0,0148	26,1303
38,4310	0,0145	26,4140
38,5080	0,0139	26,0949
38,4599	0,0134	26,3785
38,6718	0,0132	26,1303
38,7553	0,0129	26,4140
38,8131	0,0121	26,1658
38,8998	0,0126	26,3076
38,9159	0,0118	26,2012
39,0186	0,0121	26,3785
39,1085	0,0114	26,1303
39,1760	0,0109	26,3076
39,2081	0,0103	26,2012
39,2787	0,0101	26,3076
39,2305	0,0099	26,2012
39,3718	0,0097	26,3785
39,4521	0,0096	26,3076
39,4810	0,0088	26,2721
39,5581	0,0082	26,1658

27.01.2016	13:20:17
V	I	G
[V]	[A]	[W/m²]
0,3404	0,0708	33,7531
0,8317	0,0705	34,0368
1,2042	0,0705	33,9659
1,6184	0,0703	34,0368
1,4900	0,0707	33,8240
2,2478	0,0705	33,9659
2,8194	0,0705	33,9304
3,2111	0,0704	34,1077
3,5772	0,0703	33,8240
3,9690	0,0702	34,0368
4,0396	0,0702	33,8950
4,7621	0,0702	34,0368
5,1603	0,0697	33,8950
5,5585	0,0694	34,0368
5,9374	0,0694	34,0013
5,6709	0,0696	33,9659
6,6182	0,0693	33,8950
7,0549	0,0696	34,0368
7,4627	0,0691	33,9304
7,8288	0,0688	34,0368
7,5012	0,0693	33,8950
8,4838	0,0684	34,1786
8,9687	0,0687	33,8240
9,3637	0,0691	34,0368
9,7201	0,0681	33,9659
10,0701	0,0681	34,0722
10,2724	0,0687	33,8240
10,8697	0,0678	34,1786
11,2679	0,0684	33,9304
11,6083	0,0672	34,0722
11,9840	0,0678	33,9304
11,8234	0,0672	34,0722
12,6776	0,0669	34,0013
13,0790	0,0670	34,0013
13,4964	0,0670	33,9304
13,8529	0,0670	34,0013
13,4740	0,0671	33,8240
14,4534	0,0666	34,0368
14,9350	0,0666	33,9304
15,3139	0,0662	34,1786
15,6672	0,0660	33,9304
15,9080	0,0656	34,1077
16,1906	0,0657	33,8950
16,7525	0,0657	34,1786
17,1090	0,0654	33,8950
17,4622	0,0650	34,1786
17,8443	0,0650	33,9659
17,5971	0,0643	34,0368
18,4866	0,0640	33,8950
18,8944	0,0642	34,0722
19,2251	0,0642	33,9659
19,5912	0,0640	34,1786
19,2604	0,0634	33,9304
20,2109	0,0632	34,1077
20,6091	0,0626	33,8950
20,9527	0,0624	34,0722
21,3188	0,0626	33,8950
20,8500	0,0630	34,1077
21,8583	0,0623	33,9304
22,3271	0,0621	34,1786
22,6610	0,0617	33,8950
22,9950	0,0610	34,0368
23,3386	0,0611	33,9304
23,2423	0,0605	34,0722
23,9680	0,0604	33,7531
24,3533	0,0604	34,1077
24,6648	0,0601	33,9659
24,9891	0,0592	34,0722
24,8478	0,0591	33,8240
25,5639	0,0585	34,0722
25,9525	0,0586	33,8240
26,2704	0,0585	34,0368
26,5947	0,0579	33,8240
25,8658	0,0579	34,0368
27,1374	0,0574	33,9304
27,5259	0,0565	34,2141
27,8535	0,0565	34,0013
28,1296	0,0557	34,1786
28,3640	0,0559	33,9659
28,3608	0,0558	34,1786
29,0063	0,0547	33,8950
29,3595	0,0543	34,1786
29,6581	0,0537	33,9304
29,9536	0,0535	34,1077
29,7930	0,0532	33,8950
30,4641	0,0523	34,2141
30,7660	0,0514	33,8950
31,0742	0,0510	34,1786
31,3504	0,0505	34,0013
30,7820	0,0507	34,0368
31,8256	0,0497	33,9659
32,1307	0,0491	34,1077
32,4069	0,0491	33,8950
32,7119	0,0480	34,0722
32,5160	0,0482	33,8950
33,0491	0,0469	34,1077
33,4505	0,0461	33,7886
33,7170	0,0455	34,2495
33,9386	0,0449	33,9304
34,1794	0,0440	34,2850
34,0510	0,0435	33,7886
34,6161	0,0431	34,0722
34,8794	0,0420	33,8240
35,1074	0,0415	34,1786
35,3643	0,0408	33,8240
34,9372	0,0400	34,1786
35,7240	0,0395	33,8950
35,9777	0,0388	34,0722
36,2153	0,0385	33,8950
36,4144	0,0373	34,2495
35,6822	0,0366	33,9304
36,6424	0,0359	34,2141
36,9699	0,0346	33,7531
37,1915	0,0347	34,2850
37,3649	0,0336	33,8950
37,4965	0,0330	34,2850
37,4419	0,0323	33,8240
37,8915	0,0309	34,2495
38,0585	0,0304	33,8240
38,2255	0,0296	34,0722
38,4053	0,0293	33,9659
38,0842	0,0280	34,2495
38,6558	0,0267	33,7886
38,8259	0,0266	34,1786
38,9801	0,0256	33,7531
39,1342	0,0249	34,2141
38,5723	0,0248	33,8240
39,3365	0,0234	34,2141
39,5163	0,0229	33,9304
39,6608	0,0224	34,2141
39,7829	0,0216	33,8240
39,2627	0,0211	34,3204
39,8118	0,0201	33,9304
40,0847	0,0195	34,2850
40,2035	0,0190	33,7886
40,3063	0,0182	34,2141
40,4155	0,0172	33,9304
40,1457	0,0172	34,2495
40,5535	0,0156	33,8240
40,6820	0,0156	34,2141
40,7815	0,0152	33,8950
40,8329	0,0142	34,2850
40,3448	0,0135	33,8240
40,9742	0,0130	34,1786
41,0866	0,0125	33,8950
41,1380	0,0117	34,2495
41,2054	0,0114	33,8240
40,2710	0,0115	34,0722
41,2536	0,0110	33,8950
41,3949	0,0105	34,2141
41,4334	0,0092	33,9304
41,4944	0,0090	34,2141
41,1604	0,0092	33,8950
41,4173	0,0090	34,1786
41,6389	0,0079	33,9659

27.01.2016	13:25:17
V	I	G
[V]	[A]	[W/m²]
0,3211	0,0552	26,8040
0,5909	0,0562	26,6621
0,9762	0,0559	26,6976
1,2909	0,0559	26,5912
1,5959	0,0556	26,6621
1,9106	0,0553	26,5203
2,1547	0,0556	26,8040
2,5496	0,0553	26,4494
2,8483	0,0557	26,8394
3,1148	0,0556	26,5558
3,4584	0,0557	26,8040
3,7538	0,0553	26,4849
4,0749	0,0547	26,8040
4,3961	0,0547	26,5203
4,7011	0,0550	26,8394
4,9227	0,0551	26,6621
5,3144	0,0548	26,7685
5,6291	0,0548	26,5558
5,9438	0,0548	26,7685
6,2425	0,0547	26,5558
6,4544	0,0547	26,5912
6,8558	0,0546	26,5558
7,1544	0,0541	26,7685
7,4595	0,0542	26,5912
7,7581	0,0542	26,7331
8,0343	0,0542	26,6621
8,3522	0,0538	26,6976
8,6508	0,0534	26,6621
8,9462	0,0540	26,7331
9,1742	0,0538	26,5912
9,5403	0,0540	26,7331
9,8454	0,0531	26,5912
10,1312	0,0532	26,7685
10,3881	0,0535	26,5912
10,6096	0,0524	26,7331
11,0174	0,0529	26,5912
11,2904	0,0532	26,7685
11,6083	0,0534	26,5912
11,9101	0,0531	26,7331
12,1638	0,0525	26,4849
12,4913	0,0529	26,6621
12,7739	0,0521	26,5203
13,0501	0,0521	26,6621
13,2299	0,0524	26,5912
13,6506	0,0520	26,6621
13,9364	0,0520	26,5912
14,2157	0,0515	26,5203
14,4951	0,0515	26,5203
14,7167	0,0510	26,5912
15,0667	0,0513	26,4494
15,3493	0,0515	26,5912
15,6286	0,0512	26,5203
15,9080	0,0514	26,6976
16,1745	0,0510	26,4849
16,4667	0,0504	26,6976
16,7622	0,0503	26,5203
17,0255	0,0505	26,7331
17,1957	0,0504	26,4849
17,5874	0,0502	26,8040
17,8764	0,0503	26,5558
18,1654	0,0496	26,8040
18,4384	0,0498	26,5203
18,6407	0,0497	26,7685
18,9875	0,0497	26,5558
19,2380	0,0494	26,5912
19,5173	0,0494	26,5203
19,7935	0,0492	26,7331
20,0504	0,0487	26,4494
20,3394	0,0487	26,6621
20,5963	0,0486	26,4849
20,8596	0,0491	26,6976
21,0105	0,0485	26,5558
21,3702	0,0476	26,5558
21,6399	0,0473	26,5203
21,9128	0,0476	26,6621
22,1858	0,0473	26,6621
22,3624	0,0470	26,6621
22,6996	0,0470	26,5912
22,9661	0,0473	26,6976
23,2198	0,0466	26,5912
23,4799	0,0461	26,7331
23,7239	0,0460	26,5912
23,9872	0,0459	26,7685
24,2570	0,0455	26,5558
24,4882	0,0456	26,6976
24,6295	0,0454	26,5203
24,9827	0,0451	26,6621
25,2139	0,0445	26,5558
25,4804	0,0445	26,5912
25,7245	0,0445	26,5912
25,8497	0,0438	26,4849
26,1516	0,0433	26,4849
26,4052	0,0435	26,5203
26,6011	0,0432	26,5558
26,9190	0,0428	26,6621
27,1374	0,0424	26,5912
27,3654	0,0418	26,5203
27,5901	0,0415	26,5203
27,8181	0,0413	26,5558
27,9883	0,0421	26,5912
28,2902	0,0412	26,6976
28,5310	0,0405	26,4849
28,7365	0,0405	26,5203
28,9581	0,0401	26,5912
29,0994	0,0399	26,6621
29,4237	0,0395	26,4849
29,6003	0,0393	26,5558
29,8187	0,0390	26,4849
30,0370	0,0391	26,6621
30,1944	0,0388	26,5558
30,4449	0,0377	26,5558
30,6632	0,0373	26,5203
30,8751	0,0375	26,6976
30,9715	0,0372	26,5912
31,2798	0,0364	26,6976
31,4788	0,0358	26,4849
31,6779	0,0358	26,5558
31,8545	0,0348	26,5203
31,9958	0,0343	26,4849
32,2335	0,0345	26,5203
32,4133	0,0341	26,5203
32,5963	0,0332	26,5912
32,7890	0,0331	26,5912
32,9656	0,0325	26,5203
33,1743	0,0319	26,5203
33,3285	0,0318	26,5912
33,4954	0,0313	26,5203
33,5597	0,0314	26,4849
33,8455	0,0303	26,4494
34,0092	0,0299	26,5558
34,1730	0,0296	26,5203
34,3625	0,0291	26,5558
34,4652	0,0286	26,5558
34,6771	0,0285	26,5203
34,8184	0,0282	26,5558
34,9565	0,0276	26,5203
35,0850	0,0271	26,5912
35,2487	0,0261	26,4494
35,4029	0,0259	26,6621
35,5474	0,0249	26,4849
35,6854	0,0255	26,5912
35,7497	0,0245	26,5203
35,9841	0,0250	26,5912
36,1189	0,0236	26,5558
36,2217	0,0232	26,4849
36,3919	0,0224	26,5558
36,4593	0,0224	26,5558
36,5525	0,0224	26,4849
36,7226	0,0212	26,4849
36,8318	0,0210	26,5203
36,9025	0,0206	26,4849
37,0727	0,0200	26,5203
37,1883	0,0191	26,4494
37,2910	0,0190	26,4849
37,3809	0,0185	26,5203
37,4195	0,0190	26,4849
37,6057	0,0179	26,5558
37,6988	0,0172	26,5203
37,8048	0,0166	26,5912
37,8915	0,0161	26,5203
37,9525	0,0162	26,4849
38,0617	0,0156	26,5203
38,1355	0,0155	26,4849
38,2576	0,0151	26,5912
38,2287	0,0145	26,5203
38,4278	0,0145	26,5203
38,5112	0,0134	26,4494
38,5723	0,0135	26,4849
38,6397	0,0130	26,5203
38,6558	0,0132	26,4494
38,7778	0,0121	26,4849
38,8581	0,0112	26,4494
38,9159	0,0115	26,4849
38,9640	0,0107	26,4494
39,0315	0,0107	26,5912
39,1021	0,0101	26,4849
39,1760	0,0101	26,5558
39,2145	0,0099	26,5203
39,1631	0,0093	26,5203
39,3397	0,0088	26,5203
39,3879	0,0085	26,4494
39,4425	0,0083	26,5558

27.01.2016	13:30:18
V	I	G
[V]	[A]	[W/m²]
0,3179	0,0532	24,8894
0,5620	0,0529	26,1303
0,9344	0,0535	24,8894
1,2202	0,0527	26,0949
1,5157	0,0529	24,8894
1,7276	0,0527	26,1658
2,1483	0,0527	24,9248
2,4276	0,0531	26,1303
2,7327	0,0527	24,9248
2,9286	0,0537	26,1658
3,2850	0,0525	24,8185
3,6254	0,0530	26,2367
3,8662	0,0523	24,8185
4,2066	0,0531	26,3076
4,5052	0,0523	24,7830
4,8007	0,0521	26,2721
5,0897	0,0525	24,7830
5,3787	0,0520	26,2012
5,6677	0,0525	24,9248
5,9535	0,0521	26,2012
6,2457	0,0516	24,8894
6,5443	0,0523	26,1658
6,7980	0,0519	24,8539
7,1063	0,0514	26,1658
7,4177	0,0521	25,0312
7,7132	0,0523	26,2012
7,9058	0,0516	24,8539
8,2302	0,0515	26,2367
8,5770	0,0516	24,9603
8,8563	0,0516	26,2721
9,0137	0,0516	24,8539
9,4151	0,0512	26,2367
9,6977	0,0514	24,9603
10,0027	0,0512	26,2721
10,1633	0,0514	24,8185
10,5454	0,0507	26,3785
10,8472	0,0512	24,9603
11,1073	0,0504	26,2367
11,3996	0,0505	24,9603
11,6436	0,0504	26,2721
11,9551	0,0503	24,8185
12,2280	0,0507	26,2367
12,5235	0,0505	24,9248
12,7996	0,0507	26,2367
13,0822	0,0497	24,8539
13,3423	0,0498	26,1658
13,6217	0,0496	24,9603
13,8625	0,0498	26,3785
14,2061	0,0496	24,9603
14,4469	0,0492	26,2367
14,7327	0,0494	24,8894
14,9061	0,0492	26,3076
15,2594	0,0493	24,8894
15,5612	0,0494	26,3785
15,8342	0,0492	24,9603
15,9915	0,0494	26,3785
16,3608	0,0486	24,8539
16,6048	0,0487	26,2367
16,9163	0,0487	24,9248
17,0897	0,0487	26,2721
17,4237	0,0482	24,9603
17,7095	0,0476	26,3785
17,9503	0,0477	24,8894
18,2104	0,0482	26,3785
18,5090	0,0476	24,9603
18,7402	0,0473	26,2721
19,0035	0,0470	24,9248
19,2958	0,0475	26,4140
19,5302	0,0472	24,9603
19,8063	0,0470	26,3785
20,0729	0,0469	24,9603
20,3233	0,0469	26,4140
20,5417	0,0467	24,9248
20,8275	0,0469	26,4140
21,0844	0,0466	25,0667
21,3348	0,0456	26,3785
21,4922	0,0460	24,8894
21,8261	0,0456	26,2721
22,0895	0,0460	24,9603
22,3207	0,0454	26,2721
22,4844	0,0456	24,8894
22,8377	0,0451	26,2367
23,0913	0,0450	24,8894
23,3225	0,0443	26,3785
23,4638	0,0448	24,9603
23,8299	0,0442	26,4140
24,0675	0,0443	25,0312
24,3180	0,0439	26,4140
24,4946	0,0437	24,8894
24,7804	0,0432	26,4494
25,0341	0,0431	24,8894
25,2589	0,0431	26,4140
25,5157	0,0428	25,0312
25,7405	0,0427	26,4494
25,9589	0,0422	24,9248
26,1869	0,0421	26,3076
26,3667	0,0417	25,0312
26,5947	0,0415	26,4494
26,8901	0,0415	25,0312
27,1085	0,0413	26,3785
27,3333	0,0410	24,9248
27,4649	0,0405	26,4140
27,7892	0,0401	25,0667
27,9723	0,0402	26,4849
28,2003	0,0394	24,9603
28,3416	0,0395	26,3785
28,6434	0,0390	24,9248
28,8586	0,0391	26,2367
29,0673	0,0381	25,0312
29,2214	0,0381	26,4140
29,5136	0,0378	24,9603
29,7159	0,0375	26,4849
29,9182	0,0369	25,0312
30,1334	0,0377	26,4849
30,3228	0,0369	24,9248
30,5091	0,0358	26,3785
30,7082	0,0357	25,0312
30,9169	0,0356	26,4494
31,0967	0,0356	25,0667
31,3087	0,0350	26,4140
31,4756	0,0343	24,9248
31,6683	0,0341	26,4140
31,7967	0,0337	25,0667
32,0376	0,0332	26,4140
32,2335	0,0328	25,0667
32,4229	0,0328	26,4849
32,5160	0,0318	24,9603
32,7922	0,0320	26,4140
32,9560	0,0316	24,9603
33,1069	0,0307	26,4494
33,1808	0,0308	24,9248
33,4794	0,0302	26,4494
33,6271	0,0299	25,0667
33,8069	0,0294	26,5558
33,8551	0,0292	25,1021
34,1023	0,0286	26,5203
34,2790	0,0283	24,9603
34,4267	0,0283	26,5203
34,5583	0,0277	25,0312
34,7285	0,0274	26,4849
34,8827	0,0267	25,0667
35,0079	0,0263	26,5203
35,1684	0,0256	25,0667
35,2873	0,0249	26,5203
35,4350	0,0249	24,9248
35,5570	0,0243	26,4849
35,7143	0,0240	24,9603
35,8203	0,0236	26,4140
35,9744	0,0234	25,0667
36,0997	0,0236	26,4849
36,2185	0,0221	25,0667
36,2827	0,0218	26,4140
36,4625	0,0213	24,9603
36,5910	0,0210	26,4494
36,7098	0,0211	24,9603
36,7291	0,0206	26,5203
36,9314	0,0194	25,1021
37,0277	0,0197	26,4849
37,1401	0,0188	25,0667
37,1144	0,0188	26,4140
37,3584	0,0185	24,9603
37,4516	0,0174	26,4494
37,5543	0,0166	24,9603
37,5319	0,0169	26,4849
37,7438	0,0164	24,9248
37,7663	0,0156	26,4849
37,9140	0,0156	24,9603
37,9975	0,0156	26,4494
38,0842	0,0144	24,9603
38,1677	0,0144	26,4494
38,2672	0,0139	25,0667
38,3475	0,0137	26,5558
38,4021	0,0134	25,0312
38,4888	0,0132	26,5203
38,5434	0,0124	24,9603
38,6204	0,0119	26,5558
38,6750	0,0115	25,0312
38,7778	0,0117	26,6621
38,8452	0,0112	25,0667
38,8870	0,0109	26,5203
38,8998	0,0102	24,9603
39,0122	0,0099	26,5203
39,0571	0,0096	25,0667
39,0828	0,0096	26,5912
39,1085	0,0097	25,0667
39,2659	0,0090	26,5203

28.01.2016	08:55:12
V	I	G
[V]	[A]	[W/m²]
0,1734	0,0264	14,3593
0,3018	0,0265	13,9338
0,4688	0,0263	14,2174
0,6326	0,0264	14,0756
0,7771	0,0267	14,3238
0,7996	0,0265	14,0756
1,0276	0,0264	14,3593
1,2620	0,0264	14,0047
1,3872	0,0263	14,3593
1,5317	0,0259	13,9338
1,7083	0,0263	14,2174
1,8560	0,0259	14,0402
2,0070	0,0264	14,3593
2,1675	0,0263	14,0756
2,3056	0,0259	14,3593
2,4340	0,0263	13,9338
2,5978	0,0259	14,2884
2,7327	0,0263	14,0047
2,8322	0,0266	14,3593
2,9992	0,0265	14,0756
3,2111	0,0263	14,4302
3,3364	0,0264	14,0047
3,5290	0,0265	14,3238
3,6671	0,0261	14,0756
3,8020	0,0264	14,3593
3,9497	0,0258	14,0402
4,0974	0,0258	14,3238
4,2612	0,0263	14,0047
4,3864	0,0258	14,3238
4,5245	0,0256	14,0047
4,6754	0,0263	14,2884
4,7204	0,0259	14,0756
4,9644	0,0264	14,3593
5,1539	0,0258	14,0047
5,3112	0,0261	14,3947
5,4236	0,0256	14,0402
5,5713	0,0255	14,2884
5,7479	0,0261	14,0402
5,8796	0,0256	14,3593
6,0113	0,0254	14,0047
6,1815	0,0258	14,3238
6,3420	0,0261	14,0402
6,4672	0,0256	14,3947
6,5379	0,0253	13,9338
6,6824	0,0259	14,2884
6,8526	0,0264	14,0402
7,0709	0,0258	14,3947
7,1962	0,0255	14,0402
7,3535	0,0259	14,3947
7,4852	0,0258	14,0047
7,5879	0,0255	14,3947
7,7902	0,0255	13,8983
7,9315	0,0253	14,3593
8,0696	0,0255	14,0756
8,1724	0,0258	14,3238
8,3458	0,0254	14,0402
8,4967	0,0254	14,3238
8,5192	0,0254	14,0756
8,7311	0,0255	14,3593
8,9430	0,0250	14,0402
9,0875	0,0249	14,3238
9,1935	0,0256	13,9338
9,3894	0,0255	14,3238
9,5275	0,0254	14,0756
9,6784	0,0255	14,3947
9,8068	0,0245	14,1111
9,9032	0,0253	14,3947
10,0862	0,0249	13,9338
10,2371	0,0250	14,3947
10,3592	0,0248	14,0402
10,4170	0,0248	14,3593
10,5968	0,0250	14,0402
10,8280	0,0249	14,3593
10,9661	0,0253	14,0402
11,1138	0,0253	14,3593
11,2551	0,0258	14,0756
11,3963	0,0248	14,4656
11,5216	0,0250	14,1111
11,6532	0,0247	14,3593
11,8234	0,0250	14,0047
11,9551	0,0248	14,3947
12,0707	0,0248	14,0402
12,1542	0,0248	14,2884
12,2312	0,0249	14,0047
12,5203	0,0253	14,4656
12,6359	0,0248	14,0047
12,8060	0,0250	14,3947
12,9377	0,0247	14,0047
13,0661	0,0248	14,4302
13,2139	0,0248	14,0402
13,3519	0,0247	14,3593
13,5029	0,0247	14,0402
13,6442	0,0248	14,4302
13,7726	0,0247	14,0756
13,9235	0,0248	14,3593
13,9877	0,0243	14,0756
14,0777	0,0248	14,3593
14,3506	0,0249	14,0756
14,4887	0,0245	14,5365
14,6043	0,0243	14,0047
14,7424	0,0239	14,3593
14,9029	0,0249	14,1111
15,0217	0,0239	14,3238
15,1694	0,0245	14,0047
15,3011	0,0247	14,4302
15,4328	0,0240	13,8983
15,5997	0,0247	14,4656
15,6993	0,0244	14,0402
15,8213	0,0247	14,3238
15,8470	0,0248	14,0756
16,1360	0,0244	14,3593
16,2516	0,0240	14,0402
16,4089	0,0240	14,3947
16,5374	0,0239	14,0402
16,6530	0,0244	14,3947
16,8232	0,0243	14,1111
16,9677	0,0240	14,3947
17,0737	0,0243	14,0402
17,2342	0,0244	14,3947
17,3434	0,0239	14,0402
17,5007	0,0243	14,3947
17,5617	0,0234	14,0402
17,6549	0,0244	14,3238
17,9118	0,0244	14,1465
18,0402	0,0244	14,3593
18,1687	0,0239	14,0756
18,3035	0,0244	14,3593
18,4320	0,0236	14,1111
18,5540	0,0236	14,3238
18,7049	0,0232	14,1111
18,8173	0,0229	14,3593
18,9714	0,0236	14,0047
19,1159	0,0234	14,4656
19,1994	0,0237	14,0047
19,3247	0,0236	14,3593
19,3182	0,0239	14,1111
19,6394	0,0237	14,4302
19,7742	0,0237	14,0402
19,8834	0,0232	14,3947
20,0086	0,0234	14,0047
20,1788	0,0238	14,4302
20,2752	0,0231	14,0047
20,4357	0,0234	14,3593
20,5481	0,0228	14,0402
20,6798	0,0229	14,5365
20,8082	0,0227	13,9338
20,9367	0,0231	14,3593
20,9784	0,0231	14,0402
21,0715	0,0229	14,3593
21,3413	0,0229	14,1111
21,4633	0,0226	14,4302
21,5853	0,0234	14,0047
21,7298	0,0228	14,4656
21,8294	0,0222	13,9338
21,9835	0,0228	14,4656
22,1151	0,0232	14,1111
22,2211	0,0227	14,3947
22,3431	0,0227	14,0047
22,5037	0,0229	14,3593
22,5776	0,0222	14,0756
22,6771	0,0220	14,3238
22,7028	0,0226	14,1111
22,9822	0,0221	14,3947
23,1363	0,0227	14,0402
23,2647	0,0226	14,4302
23,3579	0,0221	14,0047
23,4767	0,0222	14,3593
23,6244	0,0222	14,1111
23,7657	0,0222	14,4302
23,8749	0,0224	14,0402
24,0129	0,0221	14,3593
24,1382	0,0226	14,0756
24,2281	0,0220	14,3947
24,2859	0,0227	14,0047
24,4111	0,0224	14,4302
24,6327	0,0224	14,0402
24,7708	0,0220	14,4302
24,8543	0,0220	14,0047
25,0052	0,0220	14,3947
25,0983	0,0213	14,0047
25,2300	0,0218	14,4302
25,3488	0,0218	14,0402
25,4740	0,0211	14,3593
25,6121	0,0218	14,1111
25,7052	0,0212	14,3593
25,8080	0,0216	13,9338
25,9075	0,0216	14,4656
26,0135	0,0216	14,0756
26,2222	0,0212	14,3947
26,3442	0,0216	14,0756
26,4534	0,0212	14,4302
26,5626	0,0218	14,0402
26,7103	0,0213	14,4302
26,7906	0,0209	14,0402
26,9254	0,0211	14,3947
27,0378	0,0211	14,0402
27,1534	0,0209	14,3947
27,2819	0,0213	14,0402
27,3782	0,0212	14,3947
27,3429	0,0210	14,0402
27,6190	0,0209	14,3947
27,7571	0,0209	14,0047
27,8727	0,0206	14,5365
27,9659	0,0207	14,0402
28,0815	0,0206	14,4302
28,1971	0,0204	14,0047
28,3351	0,0204	14,3238
28,4572	0,0204	14,1465
28,5695	0,0204	14,5365
28,6466	0,0200	13,9338
28,7590	0,0202	14,4302
28,8329	0,0200	14,1111
28,9099	0,0204	14,4656
29,1219	0,0199	14,1465
29,2407	0,0199	14,4656
29,3370	0,0197	14,0402
29,4398	0,0197	14,3947
29,5586	0,0200	14,0402
29,7063	0,0195	14,3947
29,7962	0,0194	14,0756
29,8765	0,0194	14,4656
30,0274	0,0201	14,0756
30,1237	0,0195	14,5365
30,2072	0,0194	14,0047
30,2811	0,0193	14,3947
30,3132	0,0195	14,1111
30,5797	0,0190	14,4656
30,6568	0,0195	14,0756
30,7660	0,0191	14,3593
30,8912	0,0190	14,0402
30,9940	0,0189	14,3593
31,1128	0,0190	14,0756
31,2091	0,0190	14,4656
31,3054	0,0190	14,0756
31,4114	0,0184	14,4656
31,5045	0,0185	14,0047
31,6330	0,0185	14,4302
31,6490	0,0188	14,0047
31,7614	0,0185	14,4656
31,9220	0,0185	14,0402
32,0376	0,0183	14,4302
32,1500	0,0185	13,9338
32,2592	0,0183	14,3947
32,3555	0,0184	14,0756
32,4615	0,0182	14,5365
32,5482	0,0180	14,0402
32,6638	0,0182	14,5365
32,7537	0,0183	14,0047
32,8628	0,0180	14,5365
32,9206	0,0174	14,1111
32,9913	0,0180	14,3593
33,0041	0,0182	14,1111
33,2482	0,0171	14,3947
33,3542	0,0173	14,0402
33,4248	0,0173	14,4302
33,5532	0,0173	14,0756
33,6528	0,0174	14,4656
33,7202	0,0172	13,9338
33,8551	0,0177	14,4656
33,9161	0,0172	14,0756
34,0124	0,0166	14,3947
34,1345	0,0169	14,0756
34,2212	0,0169	14,4656
34,2179	0,0162	13,9338
34,3014	0,0169	14,5365
34,5005	0,0164	14,1111
34,5969	0,0162	14,3947
34,6932	0,0162	14,0402
34,7638	0,0164	14,4656
34,8634	0,0166	14,0402
34,9148	0,0161	14,3593
35,0593	0,0158	14,0756
35,1460	0,0157	14,4656
35,2166	0,0162	13,9338
35,3130	0,0158	14,4302
35,3708	0,0161	14,1111
35,4189	0,0155	14,4302
35,4607	0,0161	14,1111
35,6630	0,0151	14,4302
35,7625	0,0155	14,1111
35,8492	0,0148	14,3947
35,9423	0,0155	14,0402
35,9969	0,0153	14,3947
36,0740	0,0144	14,0047
36,2024	0,0155	14,4302
36,2763	0,0148	14,1465
36,3405	0,0145	14,4656
36,4336	0,0144	14,0047
36,4947	0,0148	14,5365
36,4786	0,0146	13,8983
36,5685	0,0147	14,4302
36,7708	0,0148	14,1465
36,8286	0,0144	14,4656
36,9089	0,0139	14,0756
37,0052	0,0139	14,3593
37,0662	0,0137	14,1465
37,1561	0,0136	14,3947
37,2172	0,0136	14,0047
37,3328	0,0139	14,5365
37,3841	0,0137	14,0756
37,4484	0,0135	14,4302
37,4965	0,0135	14,0402
37,5511	0,0134	14,3947
37,5640	0,0137	14,1111
37,7663	0,0129	14,4302
37,8465	0,0132	14,0402
37,9108	0,0121	14,5720
37,9750	0,0126	14,0047
38,0135	0,0124	14,3593
38,1323	0,0126	14,1465
38,1901	0,0126	14,4302
38,2383	0,0126	14,0402
38,2929	0,0121	14,3947
38,3956	0,0124	14,0047
38,4567	0,0118	14,5720
38,4502	0,0119	14,0402
38,5241	0,0119	14,5365
38,6718	0,0120	14,0756
38,6686	0,0112	14,5365
38,7714	0,0110	14,1111
38,8420	0,0110	14,3593
38,9383	0,0112	14,0756
38,9865	0,0103	14,5365
39,0443	0,0114	13,9338
39,1182	0,0112	14,3947
39,1631	0,0109	14,1465
39,2177	0,0103	14,4656
39,2498	0,0105	14,0047
39,2980	0,0108	14,4656
39,4039	0,0108	14,1111
39,4778	0,0099	14,5365
39,5195	0,0101	14,0756
39,5934	0,0098	14,3947
39,6384	0,0092	14,0047
39,7090	0,0098	14,3947
39,7668	0,0093	14,0047

28.01.2016	09:00:13
V	I	G
[V]	[A]	[W/m²]
0,1862	0,0316	15,4229
0,3853	0,0319	15,2456
0,5812	0,0314	15,6356
0,6968	0,0312	15,1038
0,8606	0,0318	15,4584
1,0340	0,0319	15,2102
1,2652	0,0320	15,4938
1,4835	0,0316	15,1747
1,6602	0,0316	15,5647
1,8528	0,0316	15,2102
2,0294	0,0316	15,6356
2,1996	0,0313	15,2456
2,3666	0,0313	15,4938
2,5593	0,0318	15,2102
2,7455	0,0319	15,5647
2,8226	0,0316	15,1038
2,9478	0,0316	15,5647
3,2850	0,0316	15,2102
3,4520	0,0312	15,6356
3,5965	0,0309	15,2456
3,8181	0,0313	15,5647
3,9915	0,0312	15,3520
4,1488	0,0310	15,6356
4,3286	0,0313	15,2102
4,5341	0,0314	15,5647
4,6915	0,0314	15,2456
4,8135	0,0308	15,5293
4,8841	0,0316	15,2102
5,2181	0,0312	15,6711
5,4011	0,0312	15,1747
5,5778	0,0308	15,5647
5,7190	0,0314	15,2102
5,9438	0,0308	15,6711
6,1012	0,0309	15,2811
6,2714	0,0308	15,5647
6,4640	0,0308	15,1747
6,6246	0,0309	15,5293
6,7819	0,0308	15,2811
6,8526	0,0308	15,5293
7,1287	0,0310	15,2102
7,3310	0,0308	15,7066
7,5012	0,0309	15,2811
7,6650	0,0299	15,6356
7,8512	0,0304	15,2456
8,0086	0,0302	15,6356
8,1788	0,0310	15,1747
8,3458	0,0304	15,5293
8,5224	0,0302	15,1747
8,6765	0,0307	15,5647
8,7472	0,0302	15,1393
8,9719	0,0307	15,5647
9,2096	0,0303	15,1747
9,3637	0,0303	15,5647
9,5596	0,0303	15,1747
9,7362	0,0308	15,4938
9,8775	0,0301	15,1747
10,0862	0,0308	15,6356
10,2564	0,0302	15,1038
10,4105	0,0307	15,5293
10,5711	0,0298	15,2456
10,7188	0,0299	15,5647
10,7541	0,0301	15,2456
11,1298	0,0298	15,5647
11,2647	0,0301	15,2456
11,4477	0,0303	15,5647
11,6179	0,0302	15,2102
11,7881	0,0302	15,5293
11,9422	0,0296	15,1393
12,1124	0,0296	15,5647
12,2762	0,0302	15,1393
12,4400	0,0301	15,4938
12,5684	0,0294	15,2102
12,6840	0,0301	15,4938
12,9505	0,0298	15,2456
13,1239	0,0292	15,4938
13,2749	0,0298	15,2102
13,4483	0,0296	15,5293
13,5928	0,0298	15,1747
13,7854	0,0293	15,5647
13,9556	0,0299	15,1747
14,1290	0,0289	15,6711
14,2639	0,0294	15,2811
14,4501	0,0296	15,6711
14,4919	0,0292	15,2456
14,7584	0,0294	15,5647
14,9607	0,0293	15,2456
15,1277	0,0291	15,7066
15,2979	0,0293	15,2102
15,4584	0,0293	15,6711
15,6254	0,0294	15,1747
15,7956	0,0294	15,6356
15,9530	0,0289	15,2102
16,1167	0,0291	15,5647
16,2677	0,0292	15,1747
16,3672	0,0292	15,5647
16,4443	0,0296	15,1747
16,7557	0,0286	15,5293
16,9131	0,0293	15,1747
17,0608	0,0291	15,5647
17,2310	0,0285	15,2102
17,4012	0,0291	15,5647
17,5714	0,0289	15,2456
17,7319	0,0286	15,6711
17,8989	0,0287	15,1393
18,0434	0,0287	15,5647
18,1590	0,0285	15,1747
18,3035	0,0292	15,5647
18,5155	0,0289	15,2456
18,7049	0,0286	15,6356
18,8334	0,0283	15,2102
19,0260	0,0283	15,6356
19,1384	0,0277	15,2456
19,3471	0,0286	15,6356
19,4916	0,0286	15,2102
19,6490	0,0283	15,6356
19,7710	0,0282	15,1747
19,9316	0,0282	15,5293
20,0311	0,0277	15,1747
20,1596	0,0286	15,4938
20,4036	0,0280	15,2811
20,5899	0,0277	15,6711
20,7536	0,0282	15,2102
20,8981	0,0275	15,6711
21,0458	0,0277	15,2456
21,2032	0,0275	15,5647
21,3766	0,0277	15,1747
21,5307	0,0275	15,5647
21,6752	0,0277	15,2102
21,7587	0,0275	15,5293
21,8101	0,0283	15,1393
22,1184	0,0275	15,5647
22,2757	0,0269	15,1393
22,4298	0,0274	15,6356
22,5840	0,0271	15,2102
22,7317	0,0274	15,5647
22,9211	0,0274	15,2456
23,0689	0,0267	15,6356
23,1748	0,0269	15,1747
23,3611	0,0275	15,6356
23,4253	0,0271	15,1393
23,5730	0,0272	15,4938
23,7978	0,0272	15,2456
23,9519	0,0266	15,5647
24,0964	0,0267	15,2456
24,2698	0,0266	15,6711
24,4111	0,0267	15,2102
24,5620	0,0269	15,6356
24,7130	0,0269	15,1747
24,8382	0,0264	15,6356
24,9827	0,0265	15,1747
25,1208	0,0266	15,5293
25,2107	0,0267	15,2102
25,3231	0,0263	15,6356
25,5960	0,0263	15,2456
25,7373	0,0258	15,6356
25,8915	0,0264	15,2456
26,0263	0,0259	15,6711
26,1644	0,0256	15,1747
26,3314	0,0266	15,6711
26,4695	0,0263	15,2102
26,6172	0,0258	15,6711
26,7488	0,0261	15,2102
26,8580	0,0261	15,6356
26,8676	0,0263	15,1038
27,1534	0,0254	15,6356
27,2947	0,0248	15,1393
27,4424	0,0250	15,5293
27,5837	0,0254	15,2811
27,7154	0,0247	15,6356
27,8856	0,0254	15,2456
28,0333	0,0253	15,6356
28,1360	0,0244	15,1038
28,2484	0,0247	15,6711
28,4026	0,0250	15,2102
28,5246	0,0247	15,5647
28,6273	0,0248	15,1747
28,8553	0,0248	15,6356
28,9742	0,0248	15,1747
29,1219	0,0244	15,6711
29,2696	0,0245	15,2456
29,3723	0,0239	15,5293
29,5040	0,0244	15,1038
29,6645	0,0247	15,6356
29,7641	0,0238	15,2102
29,9086	0,0236	15,6711
30,0017	0,0238	15,1393
30,0948	0,0239	15,6356
30,3325	0,0239	15,2456
30,4256	0,0237	15,5647
30,5765	0,0232	15,2102
30,7178	0,0234	15,5647
30,8334	0,0232	15,1393
30,9972	0,0237	15,6356
31,1160	0,0234	15,1393
31,2284	0,0229	15,6356
31,3504	0,0229	15,1393
31,4692	0,0229	15,7066
31,4756	0,0226	15,1747
31,7711	0,0236	15,6356
31,8642	0,0224	15,1747
31,9958	0,0224	15,6356
32,1403	0,0226	15,2102
32,2656	0,0227	15,5647
32,3555	0,0220	15,1747
32,5160	0,0224	15,7066
32,6188	0,0221	15,2102
32,7601	0,0220	15,6711
32,8628	0,0224	15,2456
32,9239	0,0218	15,5293
33,0395	0,0213	15,2811
33,2482	0,0213	15,6356
33,3477	0,0216	15,1747
33,4922	0,0218	15,6356
33,6014	0,0211	15,2102
33,7299	0,0213	15,5647
33,8133	0,0211	15,2456
33,9611	0,0212	15,5647
34,0767	0,0212	15,2456
34,1634	0,0201	15,6356
34,2276	0,0204	15,1747
34,3303	0,0213	15,6711
34,5262	0,0204	15,2456
34,6611	0,0206	15,7066
34,7574	0,0200	15,1393
34,8987	0,0201	15,6711
34,9854	0,0197	15,1393
35,1042	0,0200	15,7420
35,2166	0,0199	15,1038
35,3194	0,0190	15,7066
35,4414	0,0202	15,1747
35,5153	0,0191	15,6356
35,5409	0,0199	15,1747
35,7111	0,0190	15,5647
35,8717	0,0193	15,2102
35,9777	0,0189	15,6711
36,0547	0,0188	15,2456
36,1800	0,0185	15,7066
36,2891	0,0190	15,2102
36,4047	0,0189	15,6711
36,4818	0,0179	15,2102
36,6103	0,0182	15,6356
36,6777	0,0179	15,1747
36,7676	0,0179	15,7066
36,7772	0,0183	15,2102
36,9924	0,0177	15,6356
37,1112	0,0179	15,2811
37,2011	0,0175	15,6356
37,2974	0,0174	15,1393
37,4002	0,0172	15,7066
37,4773	0,0171	15,1038
37,5864	0,0169	15,6356
37,6828	0,0166	15,1747
37,7502	0,0162	15,6356
37,8498	0,0164	15,2102
37,8658	0,0163	15,5647
38,0360	0,0162	15,1393
38,1548	0,0166	15,7420
38,2383	0,0161	15,1038
38,3186	0,0156	15,6356
38,3956	0,0155	15,2456
38,5209	0,0162	15,7066
38,6012	0,0155	15,2102
38,6879	0,0153	15,6356
38,7521	0,0146	15,1393
38,8227	0,0148	15,6356
38,8388	0,0148	15,2102
38,9094	0,0147	15,7066
39,1053	0,0151	15,2456
39,1888	0,0145	15,6356
39,2594	0,0144	15,1747
39,3526	0,0146	15,6711
39,4296	0,0145	15,1747
39,4457	0,0136	15,6356
39,5709	0,0140	15,1393
39,6544	0,0132	15,6711
39,7283	0,0134	15,2102
39,7829	0,0129	15,6356
39,7604	0,0129	14,9975
39,9595	0,0129	15,7066
40,0333	0,0129	15,2456
40,1232	0,0134	15,7420
40,1810	0,0126	15,2102
40,2549	0,0128	15,5647
40,2999	0,0119	15,1747
40,3833	0,0121	15,6356
40,4572	0,0120	15,2456
40,5375	0,0119	15,7775
40,5889	0,0117	15,1747
40,6017	0,0114	15,6711
40,6081	0,0120	15,2102
40,7880	0,0108	15,6356
40,8361	0,0114	15,1393
40,9132	0,0109	15,7066
40,9742	0,0103	15,1393
41,0513	0,0107	15,6711
41,0802	0,0107	15,1393
41,1733	0,0105	15,7066
41,2311	0,0107	15,2102
41,2953	0,0099	15,5647
41,3017	0,0093	15,1747
41,3242	0,0096	15,5647
41,4205	0,0098	15,2811
41,5201	0,0092	15,7066

28.01.2016	09:05:13
V	I	G
[V]	[A]	[W/m²]
0,2440	0,0374	17,6566
0,4496	0,0374	18,3302
0,6615	0,0375	17,6566
0,6679	0,0373	18,3302
0,5106	0,0374	17,5148
0,7257	0,0372	18,3302
1,3776	0,0369	17,6566
1,6698	0,0369	18,3302
1,9074	0,0375	17,6920
2,1418	0,0368	18,2948
2,3473	0,0375	17,7629
2,5625	0,0369	18,2239
2,7744	0,0369	17,6211
2,9767	0,0369	18,3657
3,1726	0,0372	17,6211
3,3845	0,0369	18,3657
3,5965	0,0372	17,6566
3,6125	0,0369	18,4011
3,2336	0,0368	17,6566
3,6768	0,0367	18,3302
4,2901	0,0367	17,6566
4,5277	0,0368	18,3302
4,8199	0,0372	17,5857
5,0094	0,0366	18,2239
5,2502	0,0368	17,5857
5,4461	0,0369	18,2948
5,6645	0,0363	17,6566
5,8603	0,0369	18,2239
6,0498	0,0369	17,5857
6,2585	0,0367	18,2239
6,4640	0,0366	17,6566
5,7479	0,0368	18,3657
6,4961	0,0366	17,6566
6,9585	0,0363	18,3657
7,1962	0,0362	17,6920
7,4434	0,0357	18,3302
7,6650	0,0358	17,6920
7,8898	0,0359	18,2948
8,0792	0,0364	17,6566
8,2912	0,0359	18,2239
8,4935	0,0359	17,6211
8,6829	0,0359	18,2239
8,8788	0,0362	17,6211
8,2912	0,0358	18,3657
8,7022	0,0362	17,5502
9,2738	0,0354	18,2239
9,6142	0,0356	17,5502
9,8839	0,0363	18,3302
10,0894	0,0358	17,6211
10,3110	0,0362	18,3302
10,5004	0,0357	17,6566
10,7092	0,0359	18,4366
10,8954	0,0357	17,6566
11,0720	0,0354	18,4011
11,2679	0,0354	17,5857
11,1073	0,0359	18,3657
11,1651	0,0358	17,6211
11,5762	0,0356	18,3302
11,9390	0,0354	17,6920
12,2698	0,0351	18,2948
12,4464	0,0353	17,6920
12,6648	0,0354	18,3657
12,8703	0,0350	17,6566
13,0405	0,0351	18,4366
13,2684	0,0350	17,6211
13,4547	0,0350	18,2948
13,6153	0,0353	17,6920
13,8272	0,0351	18,2948
14,0263	0,0350	17,7629
14,1451	0,0353	18,4011
13,5639	0,0348	17,5857
14,1355	0,0346	18,4011
14,5079	0,0351	17,6566
14,9286	0,0347	18,4366
15,1502	0,0346	17,6920
15,3910	0,0348	18,4011
15,5805	0,0347	17,6920
15,7764	0,0348	18,2948
15,9754	0,0347	17,6566
16,1617	0,0345	18,3302
16,3319	0,0346	17,5857
16,5310	0,0348	18,3302
16,7012	0,0341	17,6566
16,8746	0,0345	18,2948
16,9292	0,0346	17,6566
16,6016	0,0345	18,1884
17,1347	0,0345	17,6920
17,4654	0,0345	18,3302
17,7929	0,0340	17,7629
17,9953	0,0339	18,3302
18,2040	0,0335	17,6211
18,3999	0,0337	18,2239
18,5893	0,0337	17,5857
18,7884	0,0339	18,3657
18,9650	0,0336	17,5857
19,1609	0,0340	18,2948
19,3536	0,0332	17,5857
19,5462	0,0332	18,2948
19,7004	0,0335	17,6211
19,1031	0,0332	18,1884
19,6522	0,0331	17,6211
20,1403	0,0331	18,2239
20,3972	0,0336	17,7629
20,6188	0,0328	18,2948
20,8082	0,0335	17,6211
20,9977	0,0330	18,3657
21,1775	0,0329	17,6566
21,3605	0,0330	18,3657
21,5436	0,0329	17,6920
21,7266	0,0323	18,3302
21,9032	0,0325	17,6211
21,3702	0,0332	18,2948
21,7908	0,0331	17,6211
22,2918	0,0328	18,2948
22,5679	0,0325	17,5857
22,7959	0,0323	18,2948
22,9757	0,0326	17,6566
23,1620	0,0323	18,3302
23,3546	0,0325	17,7629
23,5152	0,0321	18,2948
23,7079	0,0318	17,6211
23,8684	0,0319	18,2948
24,0161	0,0320	17,5857
24,2152	0,0319	18,4366
23,6565	0,0316	17,6211
24,1221	0,0313	18,3657
24,4818	0,0318	17,6920
24,8254	0,0314	18,1884
25,0630	0,0312	17,6566
25,2589	0,0309	18,3657
25,4547	0,0313	17,7629
25,6442	0,0312	18,3657
25,8144	0,0314	17,6566
25,9878	0,0313	18,3657
26,1580	0,0308	17,6211
26,3250	0,0308	18,4011
26,4823	0,0304	17,7984
26,5497	0,0313	18,3657
26,0616	0,0310	17,6920
26,6621	0,0304	18,3302
27,0089	0,0312	17,7984
27,2915	0,0301	18,3657
27,4617	0,0301	17,6566
27,6704	0,0304	18,3657
27,8246	0,0303	17,6920
27,9594	0,0294	18,2948
28,1264	0,0299	17,6211
28,3159	0,0296	18,3302
28,4828	0,0298	17,5857
28,6627	0,0302	18,3657
27,8888	0,0303	17,6211
28,4700	0,0289	18,4011
29,0223	0,0299	17,6211
29,2632	0,0298	18,3302
29,4333	0,0292	17,7629
29,6003	0,0291	18,3302
29,7512	0,0291	17,6211
29,9150	0,0289	18,2948
30,0981	0,0286	17,6211
30,2554	0,0289	18,3657
30,4127	0,0289	17,6566
30,5572	0,0286	18,4011
29,9536	0,0282	17,6566
30,4320	0,0276	18,3657
30,9105	0,0280	17,7629
31,1224	0,0285	18,2239
31,3087	0,0276	17,6211
31,4885	0,0276	18,3657
31,6233	0,0275	17,6920
31,7678	0,0272	18,4366
31,9252	0,0275	17,5857
32,0890	0,0272	18,2948
32,2527	0,0271	17,6920
32,3619	0,0267	18,4366
31,6844	0,0267	17,5857
32,0825	0,0265	18,3657
32,6894	0,0261	17,7984
32,8725	0,0261	18,2239
33,1069	0,0264	17,6920
33,2450	0,0258	18,3302
33,4023	0,0259	17,7629
33,5276	0,0259	18,2239
33,6721	0,0259	17,5502
33,8455	0,0255	18,3657
33,9482	0,0255	17,6566
34,0799	0,0254	18,3657
33,6399	0,0255	17,6920
33,7812	0,0248	18,2948
34,3239	0,0247	17,6920
34,5840	0,0245	18,1529
34,7767	0,0248	17,6566
34,9083	0,0247	18,3657
35,0368	0,0243	17,6920
35,1684	0,0239	18,3657
35,2905	0,0237	17,6920
35,4446	0,0239	18,2948
35,5859	0,0239	17,5857
35,7304	0,0234	18,4011
34,9822	0,0237	17,6920
35,3033	0,0232	18,3302
35,9680	0,0231	17,6566
36,1864	0,0229	18,3302
36,3212	0,0226	17,6920
36,4690	0,0221	18,4011
36,5685	0,0221	17,6211
36,6970	0,0222	18,2948
36,8575	0,0222	17,6566
36,9667	0,0218	18,3657
37,0855	0,0217	17,7629
37,1915	0,0212	18,2948
36,7259	0,0216	17,5857
36,8286	0,0206	18,3657
37,4002	0,0210	17,6920
37,6186	0,0207	18,2948
37,7598	0,0201	17,6211
37,9043	0,0201	18,3302
37,9910	0,0201	17,6920
38,0906	0,0201	18,2948
38,2383	0,0197	17,6920
38,3186	0,0199	18,4011
38,4374	0,0194	17,7984
38,5369	0,0195	18,4011
37,8433	0,0191	17,6211
38,2415	0,0190	18,3302
38,7681	0,0190	17,6566
38,9255	0,0180	18,4011
39,0443	0,0182	17,6920
39,1567	0,0183	18,2948
39,2562	0,0175	17,6211
39,3783	0,0175	18,3302
39,4682	0,0175	17,6566
39,5709	0,0172	18,4011
39,6512	0,0164	17,6211
39,7122	0,0173	18,3302
39,1182	0,0174	17,7629
39,6962	0,0164	18,3302
39,9081	0,0163	17,6920
40,0911	0,0161	18,3657
40,1810	0,0156	17,6211
40,2774	0,0155	18,2948
40,3705	0,0153	17,6211
40,4733	0,0151	18,2948
40,5535	0,0151	17,6566
40,6467	0,0151	18,4366
40,7077	0,0145	17,6920
40,5214	0,0144	18,3657
40,3320	0,0142	17,7629
40,6434	0,0136	18,2239
40,9646	0,0139	17,6566
41,0737	0,0134	18,3657
41,1669	0,0130	17,6566
41,2504	0,0129	18,4011
41,3274	0,0128	17,7629
41,3981	0,0125	18,4011
41,4751	0,0124	17,7984
41,5458	0,0118	18,3657
41,6100	0,0120	17,7629
40,9838	0,0119	18,3657
41,1669	0,0120	17,7629
41,6228	0,0114	18,3657
41,8251	0,0110	17,6211
41,9440	0,0107	18,3302
41,9986	0,0107	17,6211
42,0756	0,0107	18,3302
42,1398	0,0107	17,7984
42,2041	0,0102	18,3302
42,2522	0,0101	17,6566
42,3197	0,0101	18,3657
42,3743	0,0101	17,7629
41,6839	0,0098	18,3302
42,0788	0,0099	17,6211
42,3486	0,0085	18,3302
42,5477	0,0090	17,6566
42,6311	0,0090	18,4011

28.01.2016	09:10:12
V	I	G
[V]	[A]	[W/m²]
0,2537	0,0431	21,1312
0,5009	0,0435	20,2093
0,7514	0,0428	21,0957
0,9955	0,0431	20,2448
1,1753	0,0424	21,0603
1,4643	0,0433	20,1030
1,7404	0,0428	21,0603
1,9492	0,0428	20,2093
2,1996	0,0424	21,1312
2,4373	0,0429	20,2448
2,6588	0,0429	21,0603
2,9414	0,0427	20,1030
3,1501	0,0427	21,1312
3,4102	0,0427	20,1030
3,6479	0,0418	21,1666
3,8020	0,0428	20,1739
4,1167	0,0422	21,2730
4,3607	0,0428	20,0675
4,6048	0,0432	21,2021
4,8360	0,0428	20,0675
5,0576	0,0421	21,2021
5,1924	0,0424	20,1739
5,5232	0,0423	21,2021
5,7897	0,0431	20,1739
6,0113	0,0421	21,1666
6,2553	0,0423	20,2448
6,4801	0,0422	21,1312
6,6439	0,0424	20,1030
6,9425	0,0421	21,1312
7,1833	0,0422	20,1739
7,4210	0,0421	21,0957
7,6522	0,0423	20,3157
7,8994	0,0421	21,1312
8,0760	0,0420	20,2448
8,3361	0,0417	21,0957
8,5898	0,0413	20,2448
8,7985	0,0417	21,1312
9,0329	0,0412	20,2093
9,2609	0,0418	21,1666
9,4697	0,0415	20,1739
9,7041	0,0417	21,1312
9,9674	0,0415	20,2448
10,2050	0,0422	21,0603
10,4170	0,0415	20,2448
10,5807	0,0417	21,1666
10,8665	0,0413	20,2093
11,1395	0,0418	21,1666
11,3353	0,0413	20,2448
11,5730	0,0415	21,2021
11,8010	0,0413	20,1739
11,9615	0,0412	21,2021
12,2569	0,0412	20,1739
12,4785	0,0410	21,2021
12,7097	0,0410	20,2448
12,9216	0,0411	21,1666
13,1625	0,0412	20,1739
13,3230	0,0412	21,2021
13,5960	0,0408	20,1030
13,8176	0,0405	21,2021
14,0552	0,0405	20,0675
14,2767	0,0405	21,2730
14,4855	0,0410	20,1030
14,7070	0,0404	21,2730
14,9254	0,0405	20,1739
15,1951	0,0405	21,1312
15,3717	0,0401	20,2093
15,6094	0,0406	21,2021
15,7699	0,0404	20,1739
16,0621	0,0401	21,2021
16,2516	0,0399	20,1739
16,4924	0,0401	21,0603
16,7301	0,0405	20,2802
16,9292	0,0396	21,2021
17,0512	0,0401	20,1739
17,3594	0,0396	21,0957
17,5842	0,0395	20,1030
17,8026	0,0394	21,2021
18,0081	0,0393	20,1030
18,2682	0,0396	21,2021
18,3806	0,0391	20,2448
18,6889	0,0393	21,0957
18,8815	0,0394	20,2448
19,1031	0,0391	21,1666
19,3247	0,0390	20,1739
19,5623	0,0390	21,1666
19,7068	0,0394	20,2448
19,9605	0,0385	21,1666
20,1756	0,0386	20,1030
20,3876	0,0388	21,1312
20,6220	0,0385	20,1739
20,8018	0,0388	21,3439
21,0298	0,0386	20,1739
21,1903	0,0380	21,1666
21,4376	0,0384	20,2448
21,6624	0,0378	21,0603
21,8518	0,0384	20,2448
21,9963	0,0386	21,1666
22,2950	0,0385	20,1739
22,5198	0,0383	21,2021
22,7092	0,0381	20,2093
22,9147	0,0373	21,2730
23,1042	0,0377	20,2448
23,2326	0,0380	21,2021
23,4863	0,0369	20,1030
23,7239	0,0374	21,1312
23,9519	0,0369	20,1030
24,1478	0,0375	21,2730
24,3437	0,0368	20,1030
24,5235	0,0373	21,2021
24,7547	0,0368	20,2802
24,9506	0,0367	21,1312
25,1433	0,0372	20,1739
25,3745	0,0368	21,1312
25,5511	0,0366	20,3157
25,7341	0,0362	21,1312
25,9364	0,0362	20,2448
26,1516	0,0362	21,2021
26,3442	0,0362	20,2802
26,5658	0,0363	21,1666
26,6493	0,0366	20,2802
26,9608	0,0358	21,1312
27,1117	0,0357	20,2093
27,3493	0,0356	21,2021
27,5388	0,0356	20,1030
27,7507	0,0356	21,2730
27,7925	0,0354	20,0321
28,1264	0,0350	21,1666
28,2870	0,0353	20,1030
28,4957	0,0348	21,1666
28,6851	0,0348	20,1739
28,8650	0,0345	21,1312
29,0095	0,0351	20,2093
29,2503	0,0341	21,0603
29,4398	0,0345	20,2093
29,6164	0,0341	21,1666
29,8058	0,0339	20,2093
29,9953	0,0336	21,1312
30,1526	0,0337	20,1739
30,3806	0,0339	21,0957
30,5476	0,0332	20,1739
30,7435	0,0337	21,2021
30,9169	0,0336	20,2448
31,0197	0,0332	21,2730
31,2830	0,0325	20,2802
31,4467	0,0326	21,2021
31,6266	0,0325	20,2802
31,8096	0,0321	21,3084
31,9701	0,0325	20,2448
32,0793	0,0321	21,2021
32,3073	0,0316	20,2093
32,5193	0,0316	21,2730
32,6509	0,0314	20,2093
32,8404	0,0313	21,2730
32,9945	0,0308	20,2093
33,1486	0,0316	21,0957
33,3670	0,0309	20,2448
33,5372	0,0310	21,1666
33,6945	0,0308	20,2448
33,8615	0,0307	21,2021
33,9803	0,0302	20,2448
34,1537	0,0296	21,1312
34,3496	0,0294	20,2093
34,4941	0,0294	21,1312
34,6611	0,0299	20,1739
34,8313	0,0293	21,0957
34,9019	0,0287	20,2093
35,1524	0,0289	21,1666
35,2905	0,0283	20,2093
35,4446	0,0276	21,2021
35,6180	0,0287	20,2093
35,7754	0,0281	21,2021
35,8235	0,0274	20,2093
36,0708	0,0274	21,0957
36,2249	0,0274	20,1739
36,3566	0,0266	21,3084
36,5011	0,0271	20,2093
36,6520	0,0269	21,1666
36,7804	0,0263	20,1030
36,9442	0,0263	21,2021
37,1080	0,0263	20,2448
37,2428	0,0258	21,2021
37,3456	0,0249	20,2448
37,4066	0,0254	21,1312
37,6442	0,0256	20,2448
37,7791	0,0249	21,2730
37,8754	0,0244	20,1739
38,0585	0,0240	21,1666
38,1901	0,0239	20,1739
38,2383	0,0234	21,2021
38,4213	0,0234	20,2093
38,5819	0,0234	21,1666
38,6943	0,0232	20,2802
38,8131	0,0222	21,1666
38,9319	0,0226	20,3157
38,9961	0,0218	21,0603
39,1760	0,0217	20,1030
39,3012	0,0217	21,1312
39,4072	0,0217	20,1030
39,5292	0,0209	21,1312
39,5677	0,0212	20,1739
39,7411	0,0207	21,0957
39,8375	0,0201	20,2093
40,0012	0,0201	21,1666
40,1040	0,0199	20,2093
40,1971	0,0195	21,2730
40,1939	0,0194	20,2093
40,3641	0,0184	21,2021
40,5150	0,0185	20,2802
40,6145	0,0185	21,2730
40,7045	0,0183	20,2093
40,8169	0,0177	21,3084
40,8297	0,0172	20,1739
40,9838	0,0169	21,2021
41,0770	0,0167	20,2093
41,1669	0,0164	21,1312
41,2825	0,0164	20,1739
41,3660	0,0163	21,1666
41,4334	0,0156	20,2448
41,5394	0,0153	21,0957
41,6196	0,0153	20,1739
41,7031	0,0146	21,2730
41,7834	0,0147	20,3157
41,7577	0,0146	21,1312
41,9343	0,0145	20,1739
42,0307	0,0137	21,0957
42,1013	0,0135	20,2093
42,1784	0,0128	21,1666
42,2362	0,0126	20,2802
42,2426	0,0124	21,1312
42,3678	0,0121	20,1739
42,4610	0,0120	21,0957
42,5284	0,0120	20,3157
42,5444	0,0119	21,2730
42,6344	0,0110	20,2802
42,6857	0,0110	21,1312
42,7853	0,0109	20,2448
42,8238	0,0103	21,1666
42,8816	0,0101	20,2093
42,9683	0,0105	21,1312
42,9234	0,0107	20,2802
43,0647	0,0099	21,2021
43,1064	0,0096	20,2448
43,1899	0,0097	21,1312
43,2188	0,0091	20,2802
43,2734	0,0083	21,1666

28.01.2016	09:15:12
V	I	G
[V]	[A]	[W/m²]
0,0096	0,0500	23,4357
0,4496	0,0498	24,7476
0,8510	0,0494	23,4357
1,1496	0,0498	24,7476
1,4386	0,0498	23,2939
1,2845	0,0496	24,7476
1,8560	0,0497	23,2585
2,2639	0,0494	24,7476
2,5079	0,0494	23,2939
2,7873	0,0493	24,6412
2,4084	0,0496	23,2939
3,2047	0,0492	24,7476
3,6093	0,0493	23,3294
3,8919	0,0492	24,7476
4,1841	0,0493	23,2939
3,5387	0,0492	24,8185
4,6465	0,0494	23,2230
4,9644	0,0492	24,7830
5,2727	0,0487	23,2939
5,5328	0,0493	24,7830
4,8970	0,0491	23,2939
5,9888	0,0487	24,8894
6,3324	0,0491	23,3294
6,6150	0,0487	24,7830
6,8911	0,0485	23,4003
6,1718	0,0488	24,7830
7,3567	0,0487	23,4357
7,6971	0,0483	24,7830
7,9861	0,0492	23,4003
8,2462	0,0486	24,6767
7,7517	0,0491	23,2585
8,6605	0,0482	24,7476
9,0040	0,0477	23,2585
9,2931	0,0480	24,9248
9,5403	0,0477	23,3294
8,9912	0,0483	24,8539
10,0734	0,0477	23,3294
10,3431	0,0473	24,7476
10,6032	0,0478	23,3294
10,9115	0,0480	24,8894
10,5293	0,0480	23,2939
11,3899	0,0476	24,7830
11,6693	0,0477	23,2939
11,9294	0,0475	24,7830
12,1991	0,0477	23,4003
11,7143	0,0472	24,7830
12,6904	0,0469	23,2939
12,9827	0,0472	24,8539
13,2299	0,0472	23,3294
13,4964	0,0472	24,8539
13,1753	0,0475	23,3294
13,9717	0,0472	24,8539
14,2671	0,0467	23,3294
14,5176	0,0473	24,7830
14,7937	0,0470	23,2939
14,3956	0,0466	24,7830
15,2786	0,0470	23,3294
15,5612	0,0464	24,7830
15,8470	0,0465	23,4357
16,0814	0,0466	24,8185
15,8952	0,0467	23,4003
16,5599	0,0464	24,7830
16,8585	0,0464	23,4712
17,0929	0,0466	24,7476
17,3562	0,0461	23,3294
16,8874	0,0456	24,6767
17,8379	0,0460	23,2939
18,0916	0,0459	24,7476
18,3710	0,0461	23,3294
18,6086	0,0459	24,7476
18,3260	0,0455	23,2939
19,0870	0,0456	24,8185
19,3504	0,0456	23,2939
19,5880	0,0455	24,7830
19,8352	0,0448	23,3294
19,6105	0,0450	24,7476
20,3105	0,0449	23,3294
20,5738	0,0442	24,8185
20,8339	0,0446	23,4003
21,0715	0,0450	24,8185
20,9495	0,0448	23,3294
21,5371	0,0439	24,8185
21,7844	0,0445	23,3294
22,0445	0,0442	24,7830
22,2789	0,0440	23,3294
22,0317	0,0439	24,8894
22,7445	0,0438	23,3294
22,9950	0,0438	24,8185
23,2423	0,0435	23,3294
23,4799	0,0440	24,8894
23,3836	0,0440	23,2939
23,9391	0,0435	24,8539
24,2152	0,0433	23,3294
24,4657	0,0435	24,8539
24,7001	0,0435	23,4357
24,5717	0,0427	24,8539
25,1176	0,0429	23,4357
25,3520	0,0429	24,7830
25,5928	0,0422	23,3294
25,7405	0,0424	24,8185
25,9717	0,0428	23,3294
26,3185	0,0423	24,8185
26,5433	0,0421	23,3294
26,7681	0,0418	24,8539
26,8195	0,0421	23,4357
27,0025	0,0408	24,8539
27,4392	0,0412	23,4357
27,6576	0,0413	24,7830
27,8984	0,0417	23,4003
27,9081	0,0411	24,8185
28,1842	0,0412	23,4357
28,5374	0,0408	24,8539
28,7751	0,0408	23,2585
28,9998	0,0402	24,7830
28,8264	0,0405	23,3294
29,3017	0,0404	24,8185
29,6645	0,0405	23,4357
29,8990	0,0401	24,8185
30,0852	0,0395	23,4357
29,6421	0,0394	24,8539
30,3838	0,0388	23,3294
30,7339	0,0395	24,8185
30,9586	0,0386	23,3294
31,1706	0,0386	24,8539
30,7499	0,0388	23,4357
31,4788	0,0385	24,8894
31,7711	0,0383	23,3294
31,9990	0,0378	24,8539
32,1757	0,0377	23,4712
31,5302	0,0375	24,8539
32,5064	0,0372	23,4003
32,7922	0,0367	24,8894
32,9817	0,0363	23,4357
33,1872	0,0369	24,8894
32,6220	0,0363	23,3294
33,5019	0,0362	24,7830
33,7716	0,0357	23,4003
33,9611	0,0358	24,8185
34,1569	0,0350	23,3294
33,5886	0,0356	24,7476
34,4877	0,0350	23,3294
34,7414	0,0350	24,7830
34,8762	0,0347	23,2939
35,0946	0,0346	24,8539
34,6771	0,0346	23,4357
35,4350	0,0336	24,8539
35,6533	0,0332	23,4003
35,8396	0,0331	24,8894
36,0098	0,0326	23,4712
35,5088	0,0328	24,8539
36,3245	0,0323	23,4712
36,5364	0,0321	24,8539
36,7130	0,0318	23,4712
36,8896	0,0313	24,8539
36,4882	0,0314	23,4712
37,2011	0,0303	24,8185
37,4098	0,0309	23,4357
37,5608	0,0302	24,8894
37,7342	0,0302	23,4712
37,4130	0,0293	24,8539
38,0071	0,0291	23,4712
38,2126	0,0291	24,8539
38,3475	0,0286	23,4357
38,5016	0,0282	24,8539
38,0745	0,0282	23,4003
38,7778	0,0275	24,8539
38,9383	0,0272	23,2939
39,1278	0,0269	24,8185
39,2594	0,0267	23,2939
38,8934	0,0264	24,8185
39,5517	0,0263	23,4003
39,6705	0,0256	24,8894
39,8086	0,0248	23,4712
39,9338	0,0245	24,7830
39,5870	0,0245	23,2585
40,2099	0,0239	24,8894
40,3255	0,0229	23,4003
40,4700	0,0234	24,8894
40,5921	0,0227	23,4357
40,2453	0,0220	24,8894
40,8201	0,0221	23,4357
40,9646	0,0222	24,8185
41,0737	0,0213	23,4357
41,1958	0,0211	24,7830
40,9999	0,0211	23,4712
41,4205	0,0204	24,7830
41,5233	0,0197	23,2939
41,6325	0,0200	24,7830
41,6967	0,0191	23,4003
41,5265	0,0188	24,8185
41,9375	0,0182	23,4003
42,0371	0,0183	24,9603
42,1495	0,0177	23,4003
42,1174	0,0177	24,8539
42,1687	0,0172	23,4003
42,4128	0,0166	24,8539
42,5059	0,0161	23,4003
42,6183	0,0158	24,8539
42,3421	0,0158	23,4357
42,6408	0,0156	24,8185
42,8527	0,0148	23,3294
42,9298	0,0137	24,7830
43,0069	0,0140	23,4003
42,3165	0,0136	24,8539
43,0936	0,0139	23,4003
43,2573	0,0135	24,8185
43,3055	0,0125	23,2939
43,3986	0,0120	24,7476
42,7467	0,0128	23,4003
43,4564	0,0120	24,7830
43,5913	0,0109	23,4357
43,6555	0,0112	24,8185
43,7133	0,0105	23,3294
42,9041	0,0107	24,8185
43,7615	0,0099	23,4357
43,8771	0,0098	24,8894
43,8963	0,0092	23,4357
43,9798	0,0091	24,8185
43,3922	0,0092	23,4712

28.01.2016	09:20:12
V	I	G
[V]	[A]	[W/m²]
0,0225	0,0575	26,9103
0,6583	0,0575	28,6122
0,9730	0,0567	26,8394
1,3262	0,0568	28,5767
1,4803	0,0577	27,0167
1,9106	0,0569	28,6476
2,2478	0,0568	26,9103
2,5882	0,0568	28,6122
2,8965	0,0567	26,9458
3,1244	0,0567	28,6831
3,5001	0,0567	26,9458
3,8405	0,0568	28,6122
4,1713	0,0565	26,9812
4,3800	0,0569	28,7185
4,7557	0,0565	26,9458
5,0961	0,0569	28,6476
5,4333	0,0567	27,0167
5,7383	0,0561	28,7185
5,6067	0,0567	26,9458
6,3452	0,0561	28,7894
6,6728	0,0557	27,0521
6,8076	0,0557	28,7185
7,2700	0,0562	27,0521
7,5558	0,0558	28,6476
7,8866	0,0553	27,0167
8,2141	0,0558	28,7894
8,5063	0,0552	26,9458
8,0664	0,0557	28,6122
9,1164	0,0558	26,9812
9,4343	0,0553	28,6831
9,7298	0,0556	27,0167
10,0348	0,0551	28,6476
10,3046	0,0556	26,9458
10,6128	0,0550	28,5413
10,9275	0,0548	26,9458
11,2454	0,0548	28,5767
11,4285	0,0557	26,9458
11,8234	0,0548	28,5767
12,1670	0,0553	26,9458
12,4560	0,0547	28,6122
12,7579	0,0550	26,9458
12,8221	0,0546	28,4703
13,3166	0,0548	27,0521
13,6666	0,0546	28,6476
13,9556	0,0540	27,0167
14,1611	0,0550	28,6831
14,5336	0,0538	27,0876
14,8387	0,0542	28,7185
15,1245	0,0535	26,9812
15,4135	0,0541	28,6122
15,3396	0,0540	26,9458
15,9915	0,0534	28,6122
16,2998	0,0534	26,9458
16,5920	0,0535	28,6476
16,8938	0,0535	27,0876
17,1218	0,0534	28,6476
17,4590	0,0537	26,9812
17,7673	0,0530	28,6122
18,0691	0,0531	26,9458
18,2104	0,0527	28,5767
18,6054	0,0521	26,9812
18,9201	0,0527	28,6831
19,1866	0,0527	27,0167
19,5238	0,0525	28,7894
19,5783	0,0527	26,9458
20,0857	0,0523	28,6831
20,3490	0,0520	26,9458
20,6316	0,0519	28,6476
20,2720	0,0524	26,9812
21,1968	0,0523	28,6831
21,4633	0,0515	26,9458
21,7555	0,0513	28,6831
22,0573	0,0513	27,0521
22,2147	0,0514	28,7185
22,6065	0,0512	27,0521
22,9019	0,0512	28,7185
23,1748	0,0513	27,0521
23,3675	0,0514	28,6831
23,6051	0,0504	26,9458
23,9712	0,0498	28,6122
24,2538	0,0502	26,9458
24,5267	0,0496	28,6476
24,3533	0,0500	26,9812
25,0662	0,0493	28,7185
25,3616	0,0496	26,9458
25,6281	0,0496	28,6831
25,8979	0,0493	26,9812
25,9846	0,0496	28,5767
26,4052	0,0491	26,9458
26,6589	0,0487	28,6122
26,9319	0,0486	26,9812
27,0796	0,0488	28,6122
27,4681	0,0485	26,9812
27,7347	0,0480	28,6122
28,0108	0,0477	26,9458
28,2420	0,0475	28,6122
28,3287	0,0470	26,9458
28,7590	0,0472	28,7894
29,0095	0,0470	26,9103
29,2535	0,0469	28,6831
29,3916	0,0466	26,9103
29,7288	0,0460	28,6476
30,0467	0,0459	26,9458
30,2907	0,0456	28,6476
30,5123	0,0458	26,9458
30,4641	0,0455	28,6122
31,0164	0,0451	26,9103
31,2412	0,0449	28,6476
31,5045	0,0443	26,9103
31,2316	0,0448	28,7185
31,9027	0,0446	26,9812
32,2142	0,0438	28,6831
32,4422	0,0433	26,9812
32,6991	0,0432	28,6122
32,5578	0,0432	26,9812
33,1551	0,0429	28,5767
33,3798	0,0427	27,0167
33,6335	0,0423	28,5767
33,7427	0,0421	26,9458
34,0734	0,0418	28,6122
34,3079	0,0412	26,9812
34,5359	0,0412	28,7185
34,7510	0,0408	27,0167
34,8473	0,0400	28,6476
35,1331	0,0402	26,9458
35,3932	0,0396	28,7894
35,6084	0,0391	26,9812
35,8139	0,0391	28,6831
35,8107	0,0391	26,9812
36,2506	0,0385	28,5413
36,4658	0,0381	26,9812
36,6809	0,0378	28,5767
36,2634	0,0380	27,0167
37,0727	0,0368	28,6476
37,2428	0,0363	27,0521
37,4612	0,0359	28,5767
37,6571	0,0357	26,9103
37,8241	0,0353	28,6122
38,0360	0,0347	27,0167
38,2287	0,0351	28,6476
38,4149	0,0345	27,0167
37,8498	0,0339	28,6831
38,6782	0,0328	26,9458
38,9351	0,0325	28,6122
39,0925	0,0325	26,9458
39,3205	0,0319	28,7185
39,2338	0,0316	26,9103
39,6480	0,0310	28,7185
39,8182	0,0308	27,0167
39,9787	0,0299	28,6831
40,0430	0,0299	27,0521
40,1810	0,0292	28,6122
40,4283	0,0282	26,9812
40,5953	0,0281	28,5767
40,7591	0,0280	27,0521
40,5728	0,0276	28,6476
41,0513	0,0266	27,0876
41,2022	0,0265	28,6831
41,3178	0,0259	27,0167
41,4462	0,0255	28,6831
41,4205	0,0247	26,9812
41,7095	0,0245	28,5413
41,8605	0,0244	26,9812
42,0114	0,0236	28,5767
41,5843	0,0227	27,0876
42,2169	0,0220	28,6122
42,3486	0,0217	27,0876
42,4417	0,0218	28,4703
42,5958	0,0210	27,0167
42,5958	0,0200	28,6122
42,8013	0,0197	27,0876
42,9330	0,0190	28,6122
43,0069	0,0189	27,0167
42,8816	0,0185	28,6476
43,1417	0,0183	26,8394
43,3183	0,0174	28,6122
43,4211	0,0171	27,0521
43,4949	0,0162	28,5413
43,1064	0,0164	27,0521
43,6587	0,0156	28,5767
43,7294	0,0153	26,9812
43,8417	0,0148	28,6122
43,3986	0,0146	26,9812
43,9927	0,0134	28,6831
44,0601	0,0136	26,9458
44,1083	0,0132	28,6122
44,2239	0,0126	26,9103
44,1083	0,0121	28,6476
44,2977	0,0120	27,0167
44,3941	0,0109	28,6476
44,4808	0,0107	26,9458
44,5000	0,0110	28,6476
44,4904	0,0105	27,0521
44,6253	0,0096	28,6476
44,6799	0,0097	26,9458
44,7312	0,0093	28,6122
44,2431	0,0088	26,8394
44,8179	0,0082	28,6831

28.01.2016	09:25:12
V	I	G
[V]	[A]	[W/m²]
0,3211	0,0640	31,5904
0,5266	0,0643	30,8458
1,1014	0,0648	31,5904
1,4707	0,0643	30,7749
1,7982	0,0642	31,6258
2,1868	0,0634	30,7395
2,3377	0,0634	31,5904
2,8579	0,0635	30,7040
3,2433	0,0642	31,6258
3,5965	0,0640	30,7395
3,9401	0,0634	31,6613
3,5997	0,0639	30,7749
4,6401	0,0635	31,6258
5,0094	0,0635	30,7040
5,3498	0,0628	31,6258
5,7223	0,0635	30,7395
5,9374	0,0632	31,6613
6,1750	0,0633	30,7040
6,7466	0,0626	31,7677
7,0838	0,0629	30,7749
7,4627	0,0628	31,6613
7,7678	0,0628	30,7040
8,0182	0,0626	31,5549
8,4838	0,0629	30,8104
8,8050	0,0629	31,6613
9,1710	0,0622	30,8458
9,4825	0,0617	31,6258
9,7266	0,0621	30,7749
10,1729	0,0616	31,6258
10,5069	0,0621	30,7749
10,8697	0,0622	31,6258
11,2197	0,0621	30,7395
11,3353	0,0621	31,6613
11,8652	0,0619	30,7749
12,2409	0,0613	31,6258
12,5492	0,0613	30,7040
12,8446	0,0615	31,6613
13,2010	0,0615	30,7395
13,5093	0,0611	31,7677
13,9107	0,0611	30,7040
14,1419	0,0606	31,6967
14,5625	0,0605	30,7395
14,9222	0,0610	31,6967
15,1020	0,0610	30,7040
15,5548	0,0607	31,6967
15,8695	0,0604	30,7040
16,2195	0,0605	31,8031
16,5470	0,0601	30,5976
16,7525	0,0601	31,7677
17,1860	0,0596	30,6686
17,5104	0,0599	31,6258
17,8700	0,0604	30,8104
18,1879	0,0596	31,6613
18,5026	0,0594	30,8458
18,7980	0,0589	31,6258
19,1320	0,0585	30,7040
19,4916	0,0589	31,6613
19,7742	0,0589	30,7395
20,1307	0,0595	31,6613
20,2559	0,0585	30,6686
20,7536	0,0588	31,6613
21,0812	0,0583	30,7040
21,3798	0,0584	31,6258
21,7138	0,0578	30,7749
21,9128	0,0588	31,6967
22,2982	0,0575	30,7749
22,6514	0,0578	31,6613
22,9693	0,0569	30,7749
23,2647	0,0569	31,5904
23,5826	0,0567	30,7749
23,8267	0,0567	31,6258
24,1928	0,0564	30,7749
24,4882	0,0568	31,6967
24,8221	0,0564	30,7395
25,1304	0,0562	31,6967
25,2556	0,0557	30,5976
25,7213	0,0564	31,7677
26,0360	0,0556	30,7395
26,3089	0,0548	31,6613
26,6268	0,0556	30,8104
26,8548	0,0558	31,6258
27,1759	0,0543	30,7749
27,5388	0,0542	31,6967
27,7892	0,0538	30,7395
28,1168	0,0538	31,8031
28,3865	0,0540	30,5976
28,6209	0,0541	31,6967
28,9677	0,0534	30,7749
29,2471	0,0525	31,6613
29,5297	0,0527	30,5622
29,8412	0,0524	31,7677
29,9247	0,0527	30,7040
30,3614	0,0519	31,6613
30,6504	0,0519	30,7395
30,9265	0,0513	31,7677
31,2187	0,0513	30,7395
31,4499	0,0504	31,7677
31,7550	0,0510	30,6686
32,0408	0,0500	31,6613
32,3266	0,0502	30,7749
32,5546	0,0496	31,6967
32,8404	0,0491	30,7749
33,0170	0,0482	31,6258
33,3831	0,0485	30,7749
33,6271	0,0480	31,7677
33,8808	0,0477	30,6686
34,1537	0,0475	31,6613
34,2693	0,0475	30,8104
34,6290	0,0466	31,6613
34,9212	0,0461	30,7749
35,1460	0,0455	31,6258
35,4221	0,0455	30,6686
35,6020	0,0451	31,8740
35,8364	0,0450	30,5976
36,1125	0,0439	31,7677
36,3501	0,0442	30,7040
36,5846	0,0435	31,7677
36,8447	0,0428	30,7395
36,9699	0,0423	31,7677
37,2846	0,0420	30,7040
37,5126	0,0412	31,6258
37,7053	0,0411	30,7395
37,9300	0,0406	31,6613
37,9654	0,0404	30,7749
38,3603	0,0393	31,6967
38,6012	0,0391	30,7040
38,7874	0,0388	31,6967
38,9961	0,0386	30,7040
39,1856	0,0373	31,8031
39,3558	0,0368	30,6686
39,5998	0,0363	31,7677
39,7732	0,0353	30,7395
39,9531	0,0354	31,7677
40,1554	0,0346	30,6686
40,2774	0,0340	31,7677
40,5054	0,0328	30,5976
40,6948	0,0326	31,7677
40,8682	0,0319	30,7395
41,0352	0,0313	31,6967
41,0577	0,0310	30,7395
41,3627	0,0299	31,8031
41,5265	0,0291	30,7395
41,6485	0,0289	31,6613
41,8251	0,0277	30,7395
41,9953	0,0280	31,8386
42,0307	0,0261	30,7040
42,2876	0,0266	31,7677
42,4064	0,0255	30,7040
42,5573	0,0250	31,8386
42,6857	0,0245	30,7040
42,6665	0,0234	31,7677
42,9362	0,0229	30,6686
43,0775	0,0227	31,7677
43,1706	0,0210	30,5622
43,2991	0,0217	31,7677
43,2381	0,0207	30,7040
43,5174	0,0206	31,6967
43,6234	0,0193	30,7395
43,7486	0,0191	31,8031
43,8193	0,0182	30,7040
43,9477	0,0179	31,8386
43,9895	0,0172	30,7040
44,1179	0,0171	31,8386
44,1821	0,0162	30,5976
44,2528	0,0151	31,8031
44,3780	0,0148	30,5976
44,3780	0,0146	31,7677
44,5289	0,0134	30,6686
44,6092	0,0136	31,7677
44,6574	0,0129	30,7040
44,7216	0,0124	31,7677
44,6734	0,0126	30,7040
44,8789	0,0117	31,7677
44,8565	0,0105	30,7040
45,0106	0,0108	31,6967
45,0652	0,0102	30,7395
45,0909	0,0098	31,7677
45,1358	0,0096	30,5976
45,2097	0,0088	31,8386
45,2547	0,0083	30,7040
45,3221	0,0082	31,6967

28.01.2016	09:30:12
V	I	G
[V]	[A]	[W/m²]
0,3757	0,0716	35,3841
0,8124	0,0718	34,9941
1,2395	0,0721	35,3841
1,6505	0,0724	35,0295
2,0070	0,0711	35,3486
2,4180	0,0711	35,0295
2,8194	0,0713	35,3132
3,2176	0,0711	35,0295
3,5868	0,0713	35,4195
4,0011	0,0711	35,0295
4,3800	0,0711	35,3486
4,5695	0,0714	35,0650
4,4956	0,0708	35,4550
5,1732	0,0704	34,8877
5,7640	0,0713	35,4550
6,2746	0,0707	35,0295
6,6984	0,0707	35,3486
7,1448	0,0705	34,9231
7,5109	0,0697	35,3486
7,8962	0,0702	34,8877
8,2687	0,0702	35,4195
8,6765	0,0699	34,8522
9,0522	0,0696	35,4195
9,4343	0,0698	34,9941
9,8068	0,0699	35,4550
10,2082	0,0694	35,0295
10,5711	0,0691	35,3486
10,0348	0,0691	34,8877
10,8922	0,0698	35,3132
11,4766	0,0693	34,9231
12,0129	0,0691	35,3486
12,4335	0,0691	34,9231
12,8221	0,0687	35,3132
13,2524	0,0686	35,0295
13,6024	0,0688	35,2777
14,0006	0,0687	34,9231
14,3442	0,0680	35,3841
14,7295	0,0687	34,8877
15,1213	0,0681	35,3841
15,4970	0,0680	34,9231
15,8598	0,0678	35,4550
16,2452	0,0672	35,0295
15,8470	0,0680	35,4195
16,3608	0,0676	34,9231
16,9259	0,0680	35,3841
17,5939	0,0672	34,9231
18,0145	0,0666	35,3132
18,4063	0,0667	34,9231
18,7916	0,0662	35,4195
19,0903	0,0665	34,9941
19,4724	0,0661	35,3841
19,8577	0,0660	34,9231
20,2206	0,0653	35,3486
20,5963	0,0657	34,9231
20,9367	0,0656	35,4195
21,2995	0,0651	34,8877
21,6367	0,0651	35,4550
21,4023	0,0654	34,8877
21,7555	0,0649	35,4195
22,1280	0,0643	35,0295
22,9404	0,0643	35,3841
23,3290	0,0635	35,0295
23,6950	0,0638	35,3132
24,0643	0,0639	34,9941
24,4015	0,0634	35,3841
24,7740	0,0639	34,8877
25,0919	0,0629	35,3486
25,4772	0,0628	34,9231
25,8240	0,0628	35,3486
26,1355	0,0629	35,0650
26,4502	0,0622	35,4195
26,7906	0,0619	35,0650
26,6814	0,0624	35,3132
26,6653	0,0616	34,9941
27,2947	0,0610	35,3841
27,9851	0,0602	35,0295
28,3737	0,0604	35,3841
28,7558	0,0597	34,9941
29,1187	0,0596	35,3841
29,4462	0,0599	34,9941
29,7705	0,0594	35,3841
30,0659	0,0588	35,0650
30,4160	0,0589	35,4195
30,6953	0,0583	35,0295
31,0389	0,0583	35,4550
31,3408	0,0577	35,0650
31,6266	0,0573	35,4550
31,2926	0,0567	35,0295
31,6458	0,0565	35,3841
32,0536	0,0556	34,8877
32,7408	0,0562	35,3841
33,1069	0,0556	35,0295
33,3927	0,0547	35,3486
33,7299	0,0542	35,1004
34,0349	0,0538	35,2777
34,3560	0,0534	35,0295
34,6322	0,0534	35,4195
34,9019	0,0527	35,0295
35,1877	0,0521	35,5259
35,4639	0,0513	35,0295
35,7079	0,0505	35,4195
35,9744	0,0502	35,0295
35,5634	0,0507	35,3486
35,9102	0,0493	35,0295
36,5107	0,0483	35,4195
36,9282	0,0485	34,9941
37,2685	0,0482	35,3486
37,5768	0,0475	35,0295
37,8273	0,0466	35,3841
38,0649	0,0459	35,0295
38,3089	0,0450	35,4195
38,5723	0,0448	34,9231
38,8003	0,0438	35,3132
39,0604	0,0433	35,1004
39,2819	0,0431	35,4195
39,4971	0,0415	35,0295
39,7122	0,0410	35,4195
39,0668	0,0406	34,9231
39,6416	0,0400	35,4195
40,1393	0,0391	35,0650
40,4379	0,0381	35,3132
40,7205	0,0374	35,0295
40,9806	0,0367	35,3132
41,1926	0,0359	34,9941
41,3435	0,0348	35,3841
41,5394	0,0343	34,9941
41,7128	0,0336	35,3486
41,9119	0,0332	34,9941
42,0949	0,0326	35,3486
42,2522	0,0312	35,0295
42,4192	0,0302	35,3841
42,5444	0,0298	35,0295
41,8508	0,0294	35,2777
42,3197	0,0282	34,9231
42,7500	0,0276	35,3841
43,1000	0,0266	35,0295
43,2894	0,0263	35,3486
43,4757	0,0249	35,0295
43,5881	0,0238	35,3841
43,7261	0,0239	34,9231
43,8578	0,0228	35,3841
43,9702	0,0220	35,0650
44,0858	0,0217	35,3132
44,2110	0,0204	35,0650
44,3074	0,0195	35,3841
44,3748	0,0185	35,0650
44,3844	0,0188	35,3486
43,6362	0,0185	34,8877
44,2977	0,0177	35,3486
44,5610	0,0163	35,0295
44,8276	0,0156	35,3841
44,9432	0,0148	35,0650
45,0170	0,0140	35,2422
45,0877	0,0142	35,0295
45,2033	0,0134	35,3132
45,2611	0,0129	35,1004
45,3157	0,0119	35,3486
45,3863	0,0112	35,1359
45,4602	0,0110	35,2777
45,5372	0,0101	35,0650
45,5693	0,0101	35,4195
45,4923	0,0101	35,0295
44,8051	0,0097	35,2422
45,2547	0,0087	35,0650
45,5822	0,0083	35,2777
45,7556	0,0081	35,0295
45,8519	0,0072	35,3486

28.01.2016	09:35:12
V	I	G
[V]	[A]	[W/m²]
0,4849	0,0824	41,1987
0,9537	0,0817	40,3478
1,3904	0,0823	41,0923
1,8721	0,0824	40,3478
2,3313	0,0819	41,1632
2,7776	0,0823	40,3832
3,2176	0,0816	41,1987
3,5644	0,0823	40,3832
4,1295	0,0812	41,0214
4,6208	0,0812	40,3478
5,0319	0,0817	41,1987
5,3979	0,0816	40,2414
5,9342	0,0814	41,0923
6,4030	0,0814	40,3832
6,8365	0,0812	41,1632
7,2636	0,0807	40,4187
7,6907	0,0806	41,0923
8,1756	0,0810	40,3478
8,5962	0,0806	41,1987
9,0040	0,0807	40,4187
9,4568	0,0799	41,0569
9,9289	0,0801	40,2414
10,3206	0,0803	41,0923
10,8151	0,0803	40,3832
11,2197	0,0801	41,1632
11,6468	0,0796	40,3478
11,9551	0,0800	41,0214
12,5459	0,0795	40,2769
12,9602	0,0794	41,2341
13,3584	0,0790	40,3832
13,7790	0,0785	41,0569
14,2478	0,0785	40,2414
14,6781	0,0788	41,1987
15,0924	0,0780	40,4187
15,4938	0,0776	41,1987
15,9498	0,0780	40,3478
16,3608	0,0778	41,0214
16,8007	0,0779	40,3832
17,2149	0,0780	41,0569
17,6517	0,0778	40,4541
18,0627	0,0773	41,0923
18,3388	0,0772	40,3832
18,8719	0,0763	41,0569
19,2733	0,0762	40,3478
19,6972	0,0762	41,0569
20,0536	0,0763	40,3478
20,5224	0,0761	41,0923
20,9367	0,0754	40,2769
21,3670	0,0754	41,1632
21,7587	0,0752	40,3832
22,1762	0,0749	41,2341
22,5551	0,0746	40,2769
22,9533	0,0745	41,0923
23,3900	0,0746	40,3478
23,7721	0,0741	41,1987
24,1703	0,0732	40,2414
24,4625	0,0741	41,1632
24,9634	0,0727	40,3478
25,3552	0,0734	41,0569
25,7470	0,0725	40,3478
26,0199	0,0724	41,1632
26,5369	0,0721	40,3478
26,8805	0,0716	41,2696
27,3268	0,0714	40,3478
27,6319	0,0708	41,0923
28,0718	0,0699	40,4187
28,4347	0,0705	41,1632
28,8008	0,0698	40,2769
29,1443	0,0694	41,0569
29,5682	0,0688	40,2414
29,9311	0,0688	41,0569
30,2939	0,0680	40,4541
30,6568	0,0678	41,0923
31,0132	0,0671	40,2769
31,3825	0,0671	41,2341
31,6105	0,0661	40,3478
32,0954	0,0659	41,0214
32,4615	0,0654	40,3832
32,7986	0,0651	41,1987
33,1037	0,0649	40,3478
33,4794	0,0635	41,2341
33,8358	0,0638	40,4187
34,1537	0,0626	41,1632
34,4845	0,0619	40,3478
34,8152	0,0615	41,0923
35,1042	0,0610	40,2059
35,4510	0,0606	41,0923
35,8075	0,0601	40,3478
36,1222	0,0591	41,0569
36,4080	0,0583	40,3832
36,5846	0,0574	41,0569
37,0438	0,0565	40,3478
37,3424	0,0558	41,0569
37,6507	0,0559	40,3478
37,8626	0,0541	41,1987
38,1580	0,0537	40,3478
38,5016	0,0527	41,0923
38,7938	0,0520	40,2059
39,0186	0,0510	41,0923
39,3397	0,0498	40,2769
39,5902	0,0492	41,0923
39,8664	0,0487	40,4541
40,1040	0,0480	41,1632
40,3352	0,0461	40,2769
40,5953	0,0459	41,0569
40,7430	0,0449	40,3478
41,0705	0,0435	41,1632
41,2985	0,0421	40,3478
41,5137	0,0412	41,1632
41,6710	0,0406	40,2769
41,9375	0,0393	41,1632
42,1495	0,0378	40,2769
42,3710	0,0372	41,1632
42,5380	0,0362	40,2414
42,7178	0,0356	41,1632
42,9458	0,0345	40,3832
43,1064	0,0336	41,0923
43,2862	0,0325	40,3832
43,4371	0,0313	41,0214
43,6105	0,0299	40,2769
43,5913	0,0291	41,0923
43,8995	0,0281	40,3478
44,0633	0,0269	41,0923
44,1950	0,0263	40,2414
44,2367	0,0248	41,0923
44,4551	0,0243	40,3478
44,5771	0,0221	41,1632
44,6991	0,0213	40,2414
44,7762	0,0216	41,0569
44,9143	0,0201	40,3478
45,0395	0,0190	41,1632
45,1294	0,0189	40,2769
45,2258	0,0175	41,0569
45,3317	0,0171	40,3832
45,4152	0,0162	41,1987
45,4024	0,0155	40,3478
45,5501	0,0145	41,0569
45,6336	0,0134	40,2414
45,7267	0,0135	41,0923
45,7010	0,0128	40,2414
45,8648	0,0121	41,0214
45,9001	0,0114	40,2414
45,9707	0,0107	41,0214
45,9836	0,0107	40,2769
46,0767	0,0098	41,0214
46,1345	0,0090	40,2414
46,1923	0,0087	41,1632
46,2276	0,0083	40,3832
46,2726	0,0075	41,1987

28.01.2016	09:40:12
V	I	G
[V]	[A]	[W/m²]
0,4849	0,0850	41,8369
0,9152	0,0844	41,0923
1,4546	0,0851	41,9078
1,9299	0,0846	41,1632
2,3859	0,0850	41,9078
2,8290	0,0855	41,1987
3,3428	0,0846	41,9787
3,8020	0,0850	41,2696
4,2644	0,0843	41,8369
4,7300	0,0840	41,2696
5,2117	0,0843	41,9078
5,6484	0,0839	41,2341
6,1012	0,0840	41,9787
6,5186	0,0835	41,1987
7,0260	0,0833	41,8723
7,4531	0,0832	41,1987
7,9540	0,0835	41,9078
8,3747	0,0830	41,0923
8,7407	0,0837	41,9787
9,2898	0,0828	41,0923
9,7490	0,0837	41,8723
10,0958	0,0827	41,1987
10,6674	0,0826	41,8723
11,1170	0,0826	41,1632
11,4477	0,0816	41,8369
11,9904	0,0817	41,1987
12,4239	0,0817	41,9078
12,7932	0,0819	41,1987
13,3327	0,0814	41,9787
13,7726	0,0812	41,2341
14,1933	0,0808	41,9787
14,6460	0,0808	41,2696
15,0827	0,0808	41,8723
15,5066	0,0805	41,2696
15,9594	0,0805	41,9787
16,4057	0,0803	41,2341
16,8168	0,0800	41,8369
17,2117	0,0800	41,1987
17,7159	0,0791	41,9787
18,1398	0,0794	41,2696
18,5604	0,0791	41,9078
18,9490	0,0789	41,1987
19,4017	0,0786	42,0141
19,8352	0,0779	41,2341
20,2495	0,0783	41,9787
20,6894	0,0775	41,2696
21,1101	0,0778	41,9787
21,3766	0,0783	41,3050
21,9385	0,0775	42,0141
22,3656	0,0775	41,2341
22,6129	0,0768	41,9078
23,1845	0,0762	41,1987
23,5987	0,0758	41,8723
23,9294	0,0757	41,2341
24,3822	0,0757	41,8723
24,8478	0,0758	41,2341
25,1818	0,0753	41,9787
25,6410	0,0745	41,3050
26,0584	0,0743	41,9078
26,4277	0,0741	41,3050
26,8355	0,0741	41,9787
27,2112	0,0732	41,1987
27,6062	0,0725	41,9078
28,0237	0,0725	41,1987
28,4250	0,0724	41,9078
28,6916	0,0718	41,2341
29,1893	0,0711	41,9078
29,5778	0,0713	41,2341
29,9632	0,0705	42,0141
30,3228	0,0707	41,2341
30,7114	0,0698	42,0496
31,0646	0,0696	41,2341
31,4403	0,0686	41,9078
31,7743	0,0686	41,2696
32,1628	0,0680	41,8369
32,5449	0,0677	41,3405
32,7248	0,0671	41,9787
33,2450	0,0662	41,2696
33,6078	0,0654	42,0496
33,7877	0,0653	41,1632
34,3047	0,0643	41,9078
34,6386	0,0640	41,3405
34,8152	0,0630	41,9078
35,2776	0,0622	41,2696
35,6180	0,0613	41,8369
35,7497	0,0607	41,1987
36,3020	0,0604	41,9787
36,5974	0,0594	41,2696
36,8671	0,0586	41,9787
37,2107	0,0575	41,2696
37,5158	0,0570	42,0141
37,6218	0,0557	41,2341
38,1323	0,0557	42,0141
38,4053	0,0540	41,2696
38,6943	0,0535	41,9078
38,9801	0,0530	41,2341
39,2659	0,0523	41,8723
39,5099	0,0512	41,2341
39,8214	0,0496	42,0141
40,0654	0,0488	41,2696
40,3063	0,0470	41,9078
40,5664	0,0467	41,2696
40,7944	0,0459	41,8369
41,0448	0,0445	41,2696
41,2889	0,0439	41,8369
41,4173	0,0423	41,2696
41,7320	0,0418	41,9787
41,9568	0,0395	41,3050
41,4270	0,0395	41,9787
42,3421	0,0378	41,1632
42,5348	0,0372	41,8369
42,6055	0,0362	41,1987
42,9555	0,0350	41,9078
43,1417	0,0339	41,2696
43,2156	0,0325	41,9078
43,4757	0,0316	41,2696
43,6170	0,0303	41,9787
43,5399	0,0293	41,3050
43,9220	0,0280	41,9787
44,0697	0,0267	41,1987
44,1950	0,0259	41,8369
44,3748	0,0253	41,1987
44,4904	0,0245	41,8369
44,6092	0,0234	41,2341
44,7441	0,0221	41,9787
44,8404	0,0210	41,1987
44,9207	0,0204	41,8369
45,0716	0,0193	41,2341
45,1808	0,0184	41,8723
45,2547	0,0179	41,3405
45,3510	0,0169	41,8723
45,4377	0,0162	41,2341
45,5276	0,0148	41,9078
45,5115	0,0151	41,2341
45,6625	0,0144	41,8723
45,7556	0,0134	41,3405
45,8198	0,0128	41,8369
45,7235	0,0125	41,3760
45,9418	0,0118	41,8723
45,9739	0,0110	41,2341
45,3253	0,0101	41,8723
46,1249	0,0092	41,1987
46,1602	0,0087	41,8723
46,0895	0,0081	41,2696
46,2501	0,0075	42,0141
46,2758	0,0077	41,2696

28.01.2016	09:45:12
V	I	G
[V]	[A]	[W/m²]
0,5427	0,0947	46,3397
1,0565	0,0942	46,9424
1,6248	0,0949	46,4106
1,7404	0,0949	46,9424
2,6813	0,0952	46,4460
3,1822	0,0945	47,0133
3,6511	0,0943	46,5524
4,2034	0,0941	46,9069
4,1970	0,0933	46,4460
5,2470	0,0936	46,8360
5,7897	0,0938	46,4460
6,2328	0,0936	46,8715
6,7819	0,0938	46,4460
6,6631	0,0936	46,9069
7,8095	0,0929	46,4106
8,3361	0,0926	46,9069
8,7664	0,0927	46,4106
9,3444	0,0922	46,9424
9,2898	0,0925	46,5524
10,3206	0,0920	46,9778
10,8183	0,0916	46,4815
11,2165	0,0922	46,9069
11,8202	0,0916	46,4106
12,2377	0,0915	46,8715
12,8125	0,0908	46,4460
13,3262	0,0913	46,9778
13,5350	0,0910	46,4815
14,3217	0,0908	46,9424
14,8259	0,0908	46,5524
15,2915	0,0900	46,9424
15,7796	0,0898	46,5524
15,7603	0,0902	46,9778
16,7268	0,0897	46,4815
17,2342	0,0898	47,0133
17,6902	0,0886	46,4460
18,1943	0,0887	46,9424
18,1526	0,0881	46,3751
19,1770	0,0881	46,9069
19,6361	0,0883	46,4106
20,0761	0,0878	46,9424
20,5513	0,0877	46,3751
20,2784	0,0873	46,9069
21,5339	0,0871	46,4460
21,9771	0,0861	46,9069
22,3720	0,0859	46,4460
22,9019	0,0857	47,0133
22,6899	0,0860	46,5524
23,8235	0,0854	47,0133
24,2955	0,0846	46,4460
24,6295	0,0850	46,9778
25,2107	0,0841	46,4815
25,2749	0,0840	47,1197
26,1098	0,0834	46,4815
26,5305	0,0830	47,0133
26,7874	0,0827	46,4815
27,4007	0,0819	46,9778
27,8374	0,0819	46,5524
28,2998	0,0810	46,9424
28,7526	0,0808	46,4815
28,9549	0,0807	46,9778
29,6100	0,0801	46,5524
30,0274	0,0789	46,8360
30,4352	0,0786	46,4815
30,8655	0,0785	46,9778
30,9586	0,0776	46,4460
31,7068	0,0779	46,8715
32,1147	0,0761	46,5524
32,4904	0,0757	47,0133
32,9239	0,0753	46,4815
32,8307	0,0745	46,9069
33,6849	0,0736	46,4460
34,0799	0,0724	46,9424
34,4395	0,0720	46,5524
34,8634	0,0715	46,9778
34,7060	0,0703	46,4815
35,6052	0,0699	47,0842
35,9809	0,0691	46,4815
36,2859	0,0681	46,9069
36,7130	0,0672	46,4815
36,2089	0,0665	46,9424
37,4098	0,0648	46,3397
37,7566	0,0643	47,0133
38,0071	0,0633	46,5524
38,4213	0,0624	46,9424
38,4310	0,0611	46,4460
39,0636	0,0599	46,9069
39,3718	0,0583	46,3751
39,4553	0,0574	46,9424
39,9820	0,0561	46,4460
40,2581	0,0557	46,9424
40,5535	0,0529	46,3397
40,8425	0,0525	46,9424
40,8393	0,0514	46,3751
41,3756	0,0496	47,0842
41,6421	0,0486	46,5878
41,8894	0,0472	47,0133
42,1559	0,0459	46,5524
42,0596	0,0446	47,0842
42,6247	0,0428	46,4460
42,8495	0,0417	46,9424
43,0293	0,0402	46,5524
43,2637	0,0388	47,0133
43,0550	0,0373	46,3751
43,6298	0,0363	46,9424
43,8257	0,0346	46,3751
43,9541	0,0332	46,9778
44,1918	0,0319	46,5524
43,7583	0,0314	46,9778
44,5161	0,0296	46,5524
44,6542	0,0282	46,9069
44,7441	0,0275	46,4815
44,9432	0,0254	46,9778
44,4005	0,0249	46,4106
45,2065	0,0229	46,9778
45,3381	0,0221	46,5524
45,3510	0,0212	46,9778
45,5501	0,0206	46,4815
45,0973	0,0194	46,9778
45,7235	0,0184	46,4460
45,8198	0,0171	46,9069
45,7684	0,0163	46,5524
45,9900	0,0156	47,0842
46,0285	0,0147	46,4460
46,1538	0,0137	47,0133
46,2341	0,0130	46,4815
46,1249	0,0126	46,9424
46,3368	0,0119	46,4460
46,3914	0,0105	47,0842
46,4364	0,0101	46,3751
46,5038	0,0093	46,9069
46,1281	0,0090	46,5524
46,6162	0,0085	46,9778
46,6611	0,0081	46,3397
46,6740	0,0075	46,9424

28.01.2016	09:50:12
V	I	G
[V]	[A]	[W/m²]
0,5009	0,1016	48,8215
1,1560	0,1014	48,6797
1,2234	0,1012	48,8570
2,2928	0,1014	48,7151
2,8419	0,1007	48,8570
3,3781	0,1005	48,6797
3,9401	0,1008	48,8924
4,3993	0,1001	48,6088
5,0800	0,1002	48,8570
5,0094	0,1007	48,6797
6,1590	0,1001	48,7506
6,7306	0,1001	48,5733
7,2219	0,0992	48,7860
7,8223	0,1001	48,6088
8,1756	0,0989	48,8215
8,8981	0,0992	48,7151
8,4164	0,0989	48,8215
9,9545	0,0983	48,5733
10,4748	0,0978	48,7860
10,9950	0,0983	48,7151
11,5409	0,0980	48,8215
11,8844	0,0980	48,7506
12,6423	0,0978	48,7860
12,6423	0,0981	48,6797
13,6731	0,0968	48,7151
14,2093	0,0964	48,6088
14,6781	0,0959	48,8215
15,2272	0,0964	48,6797
15,4809	0,0956	48,8570
16,2901	0,0959	48,5733
16,6979	0,0957	48,8215
17,3627	0,0952	48,6797
17,8732	0,0949	48,8215
18,3388	0,0951	48,6797
18,8879	0,0943	48,8924
19,0453	0,0946	48,6088
19,9091	0,0938	48,8570
20,3683	0,0936	48,7151
20,9238	0,0932	48,8215
21,4183	0,0931	48,7151
21,8358	0,0925	48,6797
22,4138	0,0926	48,7151
22,2596	0,0919	48,7151
23,4253	0,0919	48,6797
23,8877	0,0914	48,8570
24,3886	0,0905	48,6088
24,8767	0,0904	48,8215
25,2974	0,0904	48,6088
25,8465	0,0900	48,8570
25,9075	0,0892	48,6088
26,7809	0,0887	48,7506
27,2562	0,0881	48,7860
27,7282	0,0878	48,8215
28,2260	0,0872	48,7151
28,5952	0,0868	48,7860
29,1154	0,0854	48,7151
28,9003	0,0855	48,8215
30,0435	0,0854	48,7506
30,5059	0,0841	48,8570
30,9394	0,0837	48,6088
31,4114	0,0837	48,7860
31,7422	0,0828	48,6797
32,2784	0,0817	48,7506
32,1917	0,0813	48,6088
33,1294	0,0806	48,7860
33,5468	0,0797	48,7151
33,9578	0,0785	48,7506
34,4042	0,0778	48,6088
34,7446	0,0772	48,7860
35,2295	0,0758	48,6797
34,8088	0,0753	48,7151
36,0387	0,0745	48,7860
36,4336	0,0735	48,7151
36,8061	0,0721	48,6088
37,1915	0,0709	48,7151
37,4323	0,0699	48,5733
37,9204	0,0691	48,7506
37,7438	0,0683	48,6088
38,6590	0,0670	48,7860
39,0090	0,0656	48,7151
39,3333	0,0639	48,7506
39,6801	0,0629	48,6088
39,8342	0,0613	48,8215
40,3320	0,0599	48,6797
39,7508	0,0588	48,8215
40,9646	0,0569	48,8215
41,2536	0,0556	48,8570
41,5201	0,0540	48,6797
41,8348	0,0525	48,7860
41,8573	0,0510	48,7506
42,3710	0,0497	48,7860
41,8412	0,0486	48,7860
42,8720	0,0464	48,7506
43,0936	0,0448	48,7860
43,2670	0,0429	48,7151
43,5367	0,0411	48,8215
43,5367	0,0399	48,7860
43,9670	0,0383	48,7860
43,8064	0,0369	48,9633
44,3427	0,0358	48,7151
44,5225	0,0335	48,7860
44,6799	0,0325	48,7506
44,8757	0,0304	48,7860
44,6253	0,0293	48,7860
45,1680	0,0281	48,7860
45,2836	0,0271	48,7506
45,4345	0,0250	48,7151
45,5693	0,0243	48,6797
45,6464	0,0227	48,8215
45,8359	0,0216	48,7151
45,3028	0,0202	48,7860
46,0414	0,0190	48,7506
46,1441	0,0184	48,7860
46,2116	0,0173	48,6088
46,3079	0,0161	48,7506
46,3015	0,0151	48,6797
46,4364	0,0146	48,7506
45,9804	0,0137	48,6797
46,6001	0,0120	48,6797
46,6676	0,0112	48,7506
46,7093	0,0107	48,7506
46,7607	0,0102	48,7506
46,7382	0,0097	48,7506
46,8827	0,0087	48,7860
46,2662	0,0080	48,7506
46,9822	0,0072	48,7506
47,0240	0,0070	48,7860

28.01.2016	09:55:06
V	I	G
[V]	[A]	[W/m²]
0,8092	0,3979	241,2356
1,5542	0,3971	241,4129
2,2992	0,3966	241,2356
3,0731	0,3961	241,7675
3,6222	0,3958	241,5193
4,3543	0,3939	241,5902
5,2053	0,3936	241,2711
5,9181	0,3925	241,3775
6,6599	0,3919	241,1293
7,3728	0,3914	241,8384
8,1017	0,3907	241,5193
8,7247	0,3891	241,6256
9,4536	0,3882	241,2711
10,2339	0,3874	241,4129
10,8729	0,3869	241,0229
11,6083	0,3852	241,8384
12,3372	0,3842	241,5193
12,8382	0,3844	241,8384
13,4643	0,3827	241,2711
14,4148	0,3811	241,3420
15,0667	0,3800	241,1647
15,7603	0,3793	241,7675
16,4411	0,3780	241,5547
17,1379	0,3777	241,6611
17,3305	0,3760	241,3420
18,5090	0,3750	241,3420
19,1545	0,3733	241,0938
19,8160	0,3723	241,8029
20,4807	0,3703	241,5193
21,1807	0,3688	241,6966
20,9013	0,3686	241,3066
22,5069	0,3663	241,4129
23,1459	0,3642	241,0584
23,7849	0,3630	241,6966
24,4497	0,3609	241,5193
25,0983	0,3590	241,6966
25,7405	0,3576	241,3420
26,3442	0,3560	241,4484
26,9929	0,3534	241,0938
27,6447	0,3523	241,7675
28,3030	0,3504	241,5902
28,9099	0,3482	241,7675
29,5200	0,3465	241,3420
30,0370	0,3447	241,4129
30,6343	0,3420	241,1647
31,3119	0,3393	241,6966
31,9091	0,3371	241,5902
32,5546	0,3347	241,8384
33,1711	0,3324	241,3420
33,7555	0,3296	241,5547
34,2212	0,3273	241,1293
34,8249	0,3246	241,7675
35,4478	0,3213	241,5547
36,0451	0,3183	241,7675
36,6006	0,3152	241,3420
37,1561	0,3118	241,5193
37,5479	0,3094	241,1647
38,0199	0,3058	241,8384
38,7938	0,3020	241,4484
39,3205	0,2982	241,6256
39,8375	0,2948	241,4129
40,3544	0,2906	241,4129
40,8618	0,2865	241,3420
40,8136	0,2824	241,8738
41,8605	0,2778	241,5902
42,3518	0,2726	241,8029
42,8110	0,2680	241,4129
43,2766	0,2624	241,5547
43,7197	0,2575	241,2711
43,6138	0,2522	242,0866
44,5867	0,2454	241,6256
45,0267	0,2401	241,9093
45,4634	0,2338	241,4129
45,8519	0,2269	241,5547
46,2276	0,2201	241,1293
46,6130	0,2134	241,9447
46,8859	0,2058	241,6611
47,3162	0,1991	241,8384
47,6630	0,1910	241,5193
47,9873	0,1834	241,5193
48,2828	0,1753	241,2356
48,5750	0,1676	241,9093
48,7676	0,1608	241,6611
49,0663	0,1525	241,9093
49,3424	0,1452	241,5193
49,6250	0,1381	241,6256
49,8498	0,1308	241,3420
50,0521	0,1228	241,9093
50,2480	0,1154	241,6966
50,3058	0,1088	241,8384
50,4760	0,1023	241,5902
50,7971	0,0960	241,5902
50,9512	0,0905	241,3775
51,0893	0,0845	241,9093
51,2145	0,0785	241,6256
51,2081	0,0736	241,9447
51,1150	0,0681	241,5193
51,5549	0,0633	241,5902
51,6769	0,0592	241,4129
51,7701	0,0557	241,9093
51,8407	0,0512	241,6611
51,8985	0,0476	241,8029
51,3815	0,0442	241,4129
52,0302	0,0417	241,6256
52,1072	0,0381	241,3775
52,1682	0,0357	242,0866
52,2100	0,0330	241,7675
52,2582	0,0303	241,8384
51,9595	0,0282	241,5547
52,3288	0,0264	241,5902
52,3160	0,0247	241,3066
52,4027	0,0229	241,9093
52,4348	0,0212	241,7675
52,4733	0,0193	241,8384
52,4926	0,0179	241,5902
52,4316	0,0163	241,6966
52,5664	0,0153	241,4129
52,5728	0,0145	242,0866
52,5985	0,0135	241,8029
52,6210	0,0121	241,9093
52,6178	0,0119	241,5547
52,5921	0,0112	241,5902
52,5985	0,0102	241,4129
52,6274	0,0092	242,0511
52,6788	0,0081	241,8029
52,6788	0,0079	241,9802
52,6981	0,0080	241,6611
52,7174	0,0074	241,7675

28.01.2016	10:00:06
V	I	G
[V]	[A]	[W/m²]
1,0436	0,4926	264,9550
1,9684	0,4918	264,7068
2,7873	0,4908	264,6714
3,7891	0,4898	264,5650
4,6658	0,4887	264,9905
5,5489	0,4872	264,7423
6,4448	0,4864	264,9905
7,3503	0,4848	264,7068
8,1402	0,4838	264,6359
9,0747	0,4828	264,6714
10,0059	0,4819	265,0259
10,8858	0,4802	264,8487
11,7432	0,4788	264,7777
12,6166	0,4770	264,6714
13,3584	0,4764	264,5650
14,2896	0,4747	264,7068
15,1823	0,4734	264,9550
16,0461	0,4718	264,8487
16,8970	0,4694	264,8487
17,7255	0,4678	264,7068
18,5187	0,4660	264,7068
19,4274	0,4645	264,6714
20,2495	0,4624	265,0259
21,0876	0,4604	264,9196
21,9128	0,4578	264,7777
22,7445	0,4557	264,7423
23,5088	0,4539	264,6714
24,3662	0,4513	264,6359
25,1882	0,4491	265,0259
26,0167	0,4463	264,9196
26,7585	0,4431	264,9550
27,5645	0,4410	264,6714
28,3640	0,4378	264,7423
29,1283	0,4350	264,6714
29,9150	0,4315	265,0259
30,6857	0,4287	264,9550
31,4339	0,4248	264,9550
32,2014	0,4212	264,7777
32,9656	0,4177	264,7423
33,6271	0,4133	264,6714
34,3721	0,4090	265,2032
35,1524	0,4047	264,9905
35,8492	0,3999	264,9550
36,5332	0,3946	264,6714
37,2557	0,3891	264,6714
37,8530	0,3838	264,7068
38,5337	0,3779	265,0614
39,2980	0,3708	265,0259
39,9434	0,3649	265,0259
40,5728	0,3576	264,6359
41,2054	0,3507	264,7068
41,6582	0,3433	264,6359
42,3261	0,3351	265,0614
42,9780	0,3260	264,8487
43,5271	0,3175	264,9905
44,0826	0,3084	264,6714
44,6124	0,2989	264,6359
44,9849	0,2891	264,6714
45,5115	0,2789	265,2032
46,0831	0,2680	265,0614
46,5552	0,2571	265,0259
47,0015	0,2459	264,8132
47,3997	0,2347	264,7423
47,6341	0,2235	264,6359
47,9809	0,2116	265,0614
48,4851	0,1990	264,9905
48,8222	0,1874	265,0259
49,1209	0,1763	264,7068
49,4323	0,1654	264,6714
49,5351	0,1550	264,7777
49,7824	0,1440	265,1678
50,2159	0,1349	264,9905
50,4342	0,1254	264,9905
50,6044	0,1160	264,7423
50,8003	0,1073	264,7068
50,8228	0,0990	264,7068
50,9223	0,0916	265,1678
51,2627	0,0841	264,9905
51,3783	0,0776	265,0614
51,4971	0,0715	264,6714
51,5967	0,0654	264,7423
51,6127	0,0605	264,7068
51,3944	0,0556	265,1678
51,8760	0,0505	264,9905
51,9531	0,0470	264,9905
52,0173	0,0424	264,7068
52,0173	0,0394	264,6359
52,1426	0,0359	264,7777
51,5517	0,0330	265,0968
52,2132	0,0298	265,0259
52,2999	0,0275	265,0259
52,2871	0,0255	264,7777
52,2678	0,0232	264,7068
52,3641	0,0212	264,6714
52,0173	0,0197	265,1678
52,4316	0,0179	265,0614
52,4476	0,0163	264,9550
52,4348	0,0155	264,7423
52,4926	0,0142	264,6359
52,4797	0,0129	264,7777
51,9499	0,0129	265,1678
52,5279	0,0112	265,0259
52,5279	0,0109	265,0968
52,5536	0,0098	264,6714
52,5504	0,0091	264,6359
52,5536	0,0090	264,7068
51,9627	0,0082	265,0614
52,5504	0,0065	265,0259

28.01.2016	10:05:07
V	I	G
[V]	[A]	[W/m²]
1,4739	0,4797	155,2219
2,7776	0,4779	155,0801
4,1231	0,4763	154,7964
5,4236	0,4750	154,6546
6,6920	0,4732	155,2928
8,0054	0,4707	154,9737
9,3123	0,4687	154,8319
10,5582	0,4669	154,6546
11,2551	0,4653	155,2573
13,1207	0,4626	154,9737
14,3731	0,4602	154,9737
15,5837	0,4581	154,6546
16,2420	0,4561	155,2573
18,0980	0,4531	155,0446
19,3375	0,4508	154,9737
20,5353	0,4475	154,6546
21,0972	0,4448	155,2573
22,9436	0,4411	155,0801
24,1350	0,4379	154,9382
25,2878	0,4339	154,6546
26,2094	0,4307	155,2928
27,5901	0,4259	154,9382
28,7558	0,4215	154,9737
29,8701	0,4162	154,6546
30,8495	0,4118	155,3282
32,0825	0,4063	155,0801
33,1743	0,4004	154,9737
34,1505	0,3940	154,7610
35,2070	0,3875	155,2928
36,1607	0,3807	155,1155
37,2910	0,3724	154,9382
38,2511	0,3642	154,7255
39,1824	0,3550	155,2928
39,9948	0,3452	155,0091
41,0513	0,3341	155,0091
41,9086	0,3231	154,7255
42,7082	0,3110	155,3637
43,4693	0,2973	155,0801
44,2817	0,2838	155,0801
45,0074	0,2690	154,7610
45,6657	0,2538	155,3992
46,2822	0,2377	155,1864
46,9084	0,2217	155,1155
47,4703	0,2058	154,7964
47,9713	0,1891	155,4701
48,4369	0,1732	155,1864
48,8543	0,1569	155,0801
49,2525	0,1424	154,9028
49,5640	0,1281	155,4701
49,8755	0,1144	155,2573
49,8723	0,1027	155,1864
50,3700	0,0902	154,9028
50,5787	0,0800	155,4701
50,7457	0,0707	155,1864
50,1998	0,0623	155,1864
50,9737	0,0550	154,9028
51,1567	0,0477	155,4701
51,2723	0,0429	155,3282
50,8549	0,0373	155,1155
51,4554	0,0330	154,9382
51,5035	0,0283	155,3992
51,5838	0,0248	155,3282
51,2370	0,0224	155,0446
51,6705	0,0188	155,0446
51,7219	0,0172	155,5055
51,7444	0,0142	155,2573
51,5196	0,0129	155,1864
51,7829	0,0119	154,9737
51,7893	0,0098	155,6119
51,8118	0,0091	155,2928
51,7797	0,0072	155,2219
51,7572	0,0075	155,0446
51,8214	0,0056	155,5410

28.01.2016	10:10:06
V	I	G
[V]	[A]	[W/m²]
0,8670	0,4669	291,3335
1,8625	0,4662	291,3335
2,7198	0,4646	291,0499
3,5708	0,4637	291,5463
4,3864	0,4623	291,4044
5,2310	0,4612	291,4399
6,0980	0,4597	291,2981
6,9489	0,4590	291,2626
7,8159	0,4575	291,0144
8,6412	0,4567	291,4753
9,3605	0,4548	291,2626
10,2789	0,4541	291,4753
11,1106	0,4526	291,1208
11,9744	0,4518	291,3335
12,7836	0,4508	291,0144
13,3102	0,4497	291,5463
14,3602	0,4481	291,2981
15,1887	0,4466	291,4399
15,9915	0,4447	291,2626
16,8232	0,4433	291,2981
17,6163	0,4415	291,0499
17,8251	0,4406	291,5463
19,2155	0,4388	291,3690
19,9669	0,4369	291,3690
20,7633	0,4346	291,1562
21,5789	0,4328	291,3335
22,1376	0,4314	290,9081
22,9147	0,4286	291,6881
23,9134	0,4274	291,2626
24,6487	0,4245	291,4044
25,3937	0,4220	291,0853
26,1805	0,4200	291,1917
26,8355	0,4177	291,0144
27,6351	0,4146	291,5463
28,4122	0,4120	291,1917
29,1219	0,4096	291,4399
29,8572	0,4064	291,0853
30,4930	0,4038	291,2626
31,2541	0,4001	291,0144
32,0183	0,3971	291,6172
32,7280	0,3940	291,4044
33,4376	0,3896	291,4753
34,1056	0,3854	291,1562
34,7574	0,3822	291,2626
35,4831	0,3772	290,9790
36,1061	0,3728	291,5463
36,7740	0,3677	291,3335
37,4516	0,3631	291,4753
37,2172	0,3570	291,1562
38,7007	0,3519	291,1917
39,3365	0,3462	291,1208
39,9274	0,3400	291,5817
40,4733	0,3328	291,3690
41,0256	0,3267	291,5463
41,2889	0,3190	291,0499
42,2233	0,3113	291,1917
42,7660	0,3036	291,0499
43,3055	0,2956	291,4753
43,8032	0,2865	291,4044
43,7807	0,2780	291,4044
44,7248	0,2685	291,1562
45,2290	0,2591	291,1562
45,6400	0,2491	290,9081
46,0928	0,2392	291,4044
46,3432	0,2290	291,3335
46,8410	0,2181	291,4044
47,2423	0,2077	291,1562
47,6020	0,1971	291,1917
47,9167	0,1864	290,9081
48,2314	0,1755	291,4399
48,4465	0,1652	291,2626
48,7741	0,1548	291,4044
49,0213	0,1451	291,0853
49,2975	0,1351	291,2626
49,4902	0,1263	290,9081
48,7676	0,1174	291,6172
49,9044	0,1094	291,3335
50,0553	0,1011	291,4753
50,1870	0,0933	290,9790
50,3861	0,0871	291,1208
50,4888	0,0803	290,9081
50,1099	0,0732	291,4399
50,7489	0,0676	291,4044
50,8420	0,0622	291,4044
50,9191	0,0569	291,0499
51,0090	0,0520	291,1208
50,8998	0,0480	290,8726
51,0636	0,0437	291,5463
51,2177	0,0399	291,4044
51,3044	0,0366	291,3690
51,3398	0,0335	291,1562
51,3526	0,0307	291,1208
51,3494	0,0275	291,0499
51,4425	0,0253	291,5817
51,4907	0,0232	291,4753
51,5517	0,0211	291,4753
51,5710	0,0195	291,2626
51,5035	0,0177	291,1208
51,5934	0,0161	291,0853
51,5999	0,0153	291,6172
51,6352	0,0139	291,2981
51,6545	0,0128	291,4399
51,2338	0,0117	291,1208
51,6577	0,0107	291,0853
51,6609	0,0096	290,9790
51,6962	0,0092	291,5817
51,6834	0,0081	291,3690
51,7058	0,0079	291,5463
51,0765	0,0065	291,1917

28.01.2016	10:15:03
V	I	G
[V]	[A]	[W/m²]
